Packet Number (n), App Timestamp (us),Sensor Timestamp (us),Fp1 (uV),Disabled (uV),F3 (uV),Fz (uV),F4 (uV),Disabled (uV),C3 (uV),Cz (uV),C4 (uV),Disabled (uV),P3 (uV),Pz (uV),P4 (uV),Disabled (uV),Disabled (uV),Ref,AccX (mg),AccY (mg),AccZ (mg),Event A, Event B
6563,26672291,192471779,-20978.8722,0.0,-16607.2569,-18866.77485,-15696.0921,0.0,4600.0323,5825.99685,-187485.3888,0.0,-1444.7487,3211.44915,5405.81685,0.0,0.0,-13.3206,0,0,0,0,0
,-326,-12,-563,,-585,-715,-755,,-622,-760,,,-935,-813,-820,,,11,,,,,
,-147,12,-3928,,-2969,-3662,-4740,,-2569,-3017,,,-3930,-3672,-3945,,,1,,,,,
,-974,1,-2102,,-1134,-1615,-2542,,-632,-768,,,-1356,-1310,-1553,,,-1,,,,,
,2722,-13,-546,,-296,-357,-375,,-219,-58,,,-293,-151,-75,,,-12,,,,,
,-1841,17,438,,544,659,666,,526,733,,,803,795,750,,,-2,,,,,
,-1060,-18,3931,,3012,3826,4586,,2567,3020,,,3894,3581,3688,,,3,,,,,
,-77,1,2063,,1140,1653,2463,,722,823,,,1287,1243,1383,,,3,,,,,
,3541,12,410,,140,235,473,,-87,-26,,,89,141,217,,,-8,,,,,
,-3238,-11,-694,,-697,-827,-636,,-690,-823,,,-826,-777,-658,,,,,,,,
,-305,,-3848,,-2943,-3860,-4790,,-2421,-3054,,,-3750,-3623,-4007,,,1,,,,,
,-66,,-1950,,-1281,-1568,-2532,,-865,-816,,,-1563,-1235,-1330,,,15,,,,,
,133,,-495,,-286,-130,-532,,-252,-46,,,-174,-80,-192,,,6,,,,,
,388,-19,612,,730,831,694,,705,762,,,1077,893,700,,,-12,,,,,
,194,-1,4031,,3154,3744,4942,,2690,2992,,,3895,3639,4061,,,-3,,,,,
,-681,,1993,,1168,1449,2420,,835,738,,,1444,1238,1558,,,-5,,,,,
,891,,325,,33,189,345,,40,-5,,,159,144,41,,,-6,,,,,
,-684,-13,-747,,-707,-687,-839,,-751,-737,,,-705,-741,-828,,,8,,,,,
,1236,12,-4105,,-3166,-3871,-4908,,-2697,-3031,,,-3871,-3582,-3707,,,-3,,,,,
,-1295,-12,-2053,,-1184,-1764,-2493,,-642,-738,,,-1374,-1269,-1334,,,-5,,,,,
,1520,,-542,,-190,-360,-533,,-3,-36,,,-143,-171,-228,,,12,,,,,
,-1349,-3,721,,775,880,831,,723,765,,,795,747,609,,,2,,,,,
,859,5,4130,,3100,4043,4869,,2593,2997,,,3820,3680,3900,,,-5,,,,,
,-740,11,2265,,1212,1694,2566,,680,801,,,1448,1315,1584,,,-10,,,,,
,-171,-1,511,,310,217,719,,72,57,,,191,97,276,,,2,,,,,
,-193,-11,-668,,-674,-849,-771,,-697,-778,,,-979,-842,-637,,,1,,,,,
,45,10,-4304,,-3236,-3921,-4972,,-2729,-3042,,,-3860,-3638,-3933,,,-1,,,,,
,457,-10,-1971,,-1099,-1396,-2461,,-718,-768,,,-1490,-1332,-1618,,,7,,,,,
,-358,1,-291,,-92,-143,-451,,45,-9,,,-44,-103,-279,,,-4,,,,,
,583,9,696,,662,679,785,,716,781,,,976,838,790,,,15,,,,,
,-513,-28,3689,,2874,3546,4553,,2585,2961,,,3876,3650,3938,,,2,,,,,
,353,19,1883,,1112,1534,2380,,740,739,,,1199,1221,1523,,,-5,,,,,
,-529,-18,479,,195,371,547,,-6,-59,,,97,122,136,,,,,,,,
,201,19,-609,,-695,-724,-778,,-741,-849,,,-764,-756,-745,,,2,,,,,
,305,-1,-4070,,-3042,-4035,-4780,,-2588,-3049,,,-3705,-3592,-3915,,,-10,,,,,
,2805,,-2026,,-1196,-1660,-2454,,-784,-743,,,-1550,-1302,-1543,,,,,,,,
,-3105,-32,-287,,-81,-71,-423,,-21,62,,,-308,-198,-227,,,1,,,,,
,-141,1,598,,762,922,722,,746,779,,,862,772,677,,,-4,,,,,
,-321,-2,3885,,2993,3859,4849,,2587,3036,,,3851,3640,4059,,,-1,,,,,
,615,13,2135,,1140,1491,2446,,810,808,,,1468,1267,1430,,,13,,,,,
,-204,-14,490,,242,125,421,,23,22,,,185,119,46,,,-6,,,,,
,-312,14,-812,,-796,-892,-945,,-752,-848,,,-812,-770,-732,,,-7,,,,,
,734,-11,-4155,,-3219,-3839,-4815,,-2729,-3108,,,-3767,-3574,-3777,,,5,,,,,
,-162,11,-1771,,-1055,-1419,-2307,,-733,-770,,,-1381,-1261,-1569,,,4,,,,,
,-55,,-287,,-66,-170,-238,,,-12,,,-206,-170,-134,,,-7,,,,,
,356,-12,833,,786,838,852,,761,866,,,713,722,853,,,10,,,,,
,-46,1,3871,,3105,3845,4758,,2696,3108,,,3888,3578,3861,,,-2,,,,,
,-131,,2068,,1175,1724,2513,,743,820,,,1336,1267,1440,,,-3,,,,,
,-268,1,412,,117,213,401,,73,,,,178,134,178,,,-11,,,,,
,2,,-828,,-700,-980,-924,,-637,-780,,,-839,-850,-760,,,6,,,,,
,634,-21,-4201,,-3047,-4032,-4950,,-2606,-3073,,,-3749,-3605,-3849,,,,,,,,
,-620,20,-2041,,-1218,-1595,-2645,,-707,-842,,,-1298,-1282,-1638,,,5,,,,,
,3094,-2,-272,,-290,-213,-467,,-279,-52,,,-324,-164,-275,,,-2,,,,,
,-1472,3,442,,493,694,675,,447,753,,,738,819,797,,,-5,,,,,
,-634,-4,3800,,2931,3690,4760,,2405,3041,,,3720,3645,4016,,,7,,,,,
,-791,-17,2125,,1149,1485,2466,,700,783,,,1373,1203,1433,,,17,,,,,
,500,19,189,,157,161,482,,41,16,,,,67,172,,,-7,,,,,
,-722,-18,-519,,-534,-530,-678,,-588,-738,,,-935,-847,-921,,,-14,,,,,
,-128,-1,-3864,,-2985,-3725,-4828,,-2496,-3010,,,-3585,-3582,-3909,,,,,,,,
,353,-12,-2071,,-1073,-1712,-2605,,-493,-753,,,-1310,-1273,-1518,,,7,,,,,
,-442,2,-579,,-256,-403,-666,,22,-45,,,-148,-190,-228,,,4,,,,,
,3405,11,445,,532,685,657,,552,761,,,823,768,716,,,-15,,,,,
,-3809,-11,4019,,3032,3936,4849,,2519,3057,,,3926,3584,3765,,,-4,,,,,
,1172,11,2163,,1168,1670,2487,,617,815,,,1171,1278,1639,,,11,,,,,
,-247,-1,350,,220,177,456,,122,73,,,153,145,260,,,3,,,,,
,1344,-13,-631,,-661,-809,-696,,-681,-741,,,-871,-848,-680,,,-4,,,,,
,-1718,2,-3935,,-3150,-3772,-4824,,-2792,-3062,,,-3830,-3594,-3880,,,8,,,,,
,194,11,-2101,,-1199,-1450,-2415,,-750,-734,,,-1406,-1194,-1513,,,-9,,,,,
,15,-10,-145,,68,-51,-292,,63,78,,,-308,-222,-289,,,-5,,,,,
,1476,-1,582,,795,727,732,,789,794,,,929,832,903,,,12,,,,,
,-1860,15,3867,,3001,3756,4740,,2709,3024,,,3972,3675,3982,,,-6,,,,,
,-108,-13,2231,,1153,1690,2447,,751,800,,,1239,1278,1509,,,16,,,,,
,107,-21,521,,239,325,597,,35,25,,,274,86,-232,,,-6,,,,,
,440,20,-698,,-789,-801,-744,,-927,-820,,,-952,-786,-765,,,-16,,,,,
,757,-20,-4046,,-3085,-3931,-4880,,-2685,-3035,,,-3903,-3616,-3754,,,13,,,,,
,-28,,-2233,,-1186,-1713,-2561,,-655,-797,,,-1350,-1260,-1383,,,-4,,,,,
,-1293,1,-268,,-82,-139,-362,,-95,-27,,,-219,-186,-246,,,-4,,,,,
,618,-14,724,,678,922,765,,680,729,,,879,780,814,,,-1,,,,,
,-198,13,3847,,2949,3810,4810,,2692,2980,,,4018,3642,3916,,,6,,,,,
,-312,,1980,,1098,1435,2398,,791,803,,,1280,1301,1620,,,-8,,,,,
,299,3,577,,200,147,462,,82,29,,,175,137,83,,,6,,,,,
,727,-3,-534,,-638,-753,-817,,-756,-810,,,-797,-783,-939,,,-3,,,,,
,4185,-12,-4128,,-3088,-3789,-4908,,-2700,-3057,,,-3877,-3602,-3901,,,-5,,,,,
,-3786,12,-2030,,-1154,-1559,-2415,,-686,-754,,,-1384,-1265,-1415,,,1,,,,,
,-892,-11,-373,,-142,-295,-453,,22,12,,,-107,-113,-70,,,16,,,,,
,4624,11,721,,767,765,778,,788,792,,,959,793,721,,,-4,,,,,
,-3531,-11,4003,,3117,3978,4953,,2612,3044,,,3789,3610,3944,,,-12,,,,,
,2888,,1989,,1120,1718,2427,,647,766,,,1203,1315,1555,,,15,,,,,
,-3778,-20,357,,38,235,479,,24,20,,,191,72,-33,,,-15,,,,,
,-365,13,-527,,-638,-831,-651,,-700,-790,,,-771,-808,-792,,,7,,,,,
,-366,7,-4119,,-3111,-3956,-4921,,-2628,-3028,,,-3783,-3589,-3865,,,-2,,,,,
,-86,,-2259,,-1234,-1658,-2624,,-733,-797,,,-1433,-1290,-1577,,,2,,,,,
,248,,-417,,-244,-154,-605,,-143,-95,,,-171,-69,-97,,,6,,,,,
,-86,-21,758,,691,833,795,,635,725,,,898,854,948,,,-3,,,,,
,2892,1,3979,,3089,3824,4919,,2647,3035,,,3851,3630,3933,,,-7,,,,,
,-2318,,2121,,1339,1619,2483,,848,840,,,1514,1280,1501,,,-2,,,,,
,610,-10,508,,341,381,529,,72,77,,,-89,50,38,,,4,,,,,
,-480,10,-708,,-738,-675,-702,,-725,-786,,,-903,-865,-890,,,9,,,,,
,-473,5,-4135,,-3204,-3930,-4948,,-2682,-3079,,,-3823,-3601,-3880,,,-2,,,,,
,-258,-15,-2215,,-1226,-1772,-2499,,-696,-799,,,-1307,-1246,-1378,,,-4,,,,,
,31,-2,-391,,-148,-257,-414,,-54,-23,,,-245,-143,-46,,,-8,,,,,
,-333,13,642,,683,900,772,,650,733,,,770,773,718,,,4,,,,,
,147,-12,4188,,3115,4033,5009,,2540,3093,,,3542,3571,3888,,,1,,,,,
,571,1,1918,,1044,1554,2480,,599,777,,,1371,1327,1492,,,2,,,,,
,-592,,390,,244,192,500,,176,56,,,333,121,52,,,-15,,,,,
,-231,-15,-717,,-640,-825,-818,,-587,-775,,,-788,-859,-757,,,17,,,,,
,293,-7,-3941,,-2883,-3830,-4910,,-2449,-3017,,,-3787,-3726,-4102,,,4,,,,,
,765,22,-2013,,-1199,-1582,-2567,,-697,-808,,,-1269,-1251,-1573,,,-7,,,,,
,-897,-1,-620,,-449,-403,-745,,-191,-36,,,-93,-61,10,,,14,,,,,
,138,,688,,796,851,973,,718,875,,,628,747,878,,,,,,,,
,406,-32,4096,,3327,3973,4948,,2744,3075,,,3795,3580,3838,,,-10,,,,,
,-793,12,1899,,1145,1649,2358,,708,777,,,1533,1298,1427,,,5,,,,,
,817,-11,361,,133,358,500,,-20,41,,,57,151,168,,,-15,,,,,
,-33,,-540,,-643,-718,-744,,-693,-769,,,-856,-809,-764,,,4,,,,,
,-477,3,-4016,,-3069,-3931,-4819,,-2645,-3039,,,-3734,-3616,-3901,,,11,,,,,
,480,13,-2075,,-1171,-1671,-2556,,-713,-768,,,-1355,-1325,-1577,,,-1,,,,,
,-479,-15,-315,,-143,-204,-404,,-64,-40,,,-402,-169,-35,,,5,,,,,
,16,,611,,680,844,699,,739,732,,,905,790,684,,,10,,,,,
,18,,3970,,3023,3855,4837,,2507,3011,,,3882,3638,3825,,,1,,,,,
,1363,12,1913,,994,1396,2388,,651,757,,,1429,1332,1623,,,-13,,,,,
,-1471,-1,256,,163,106,359,,141,6,,,265,167,226,,,-16,,,,,
,159,,-694,,-649,-753,-815,,-712,-802,,,-978,-828,-833,,,-7,,,,,
,-167,-11,-4339,,-3241,-3832,-4949,,-2760,-3047,,,-3987,-3606,-3999,,,5,,,,,
,520,,-2008,,-1130,-1590,-2452,,-670,-815,,,-1426,-1242,-1504,,,2,,,,,
,-224,-21,531,,185,-98,-260,,167,-12,,,17,-143,-143,,,8,,,,,
,1298,-1,1070,,866,838,851,,724,825,,,955,756,726,,,4,,,,,
,-1540,-1,3868,,3127,3942,4853,,2592,3076,,,3866,3616,3719,,,-4,,,,,
,-30,24,2234,,1172,1835,2591,,663,824,,,1161,1238,1380,,,-7,,,,,
,234,-21,870,,361,451,663,,118,98,,,89,63,84,,,13,,,,,
,211,19,-487,,-573,-698,-621,,-623,-753,,,-828,-814,-711,,,5,,,,,
,1643,-18,-3817,,-3059,-3868,-4794,,-2580,-3014,,,-3771,-3672,-3908,,,-3,,,,,
,-2138,9,-2225,,-1292,-1694,-2683,,-731,-809,,,-1406,-1294,-1487,,,,,,,,
,105,-24,-764,,-404,-321,-743,,-142,-115,,,-140,-18,-15,,,-16,,,,,
,418,3,384,,538,734,645,,598,711,,,939,921,850,,,6,,,,,
,1655,-1,3833,,2966,3706,4676,,2625,2982,,,4060,3721,3964,,,,,,,,
,-2320,16,1904,,1115,1494,2340,,610,835,,,1131,1211,1460,,,10,,,,,
,427,-15,562,,304,374,629,,56,95,,,-151,-31,-129,,,-12,,,,,
,-92,10,-554,,-626,-626,-589,,-596,-770,,,-674,-789,-999,,,-10,,,,,
,61,,-4136,,-3092,-3801,-4866,,-2643,-3044,,,-3801,-3576,-3871,,,12,,,,,
,376,1,-1919,,-1093,-1573,-2430,,-650,-747,,,-1455,-1274,-1363,,,-13,,,,,
,-73,-10,-476,,-225,-329,-485,,-82,-11,,,-157,-66,41,,,6,,,,,
,227,-8,535,,647,791,660,,585,805,,,873,832,816,,,22,,,,,
,-208,10,3993,,3111,3920,4794,,2689,3027,,,3859,3573,3800,,,,,,,,
,-648,4,2088,,1157,1581,2507,,716,745,,,1138,1246,1691,,,-15,,,,,
,782,-28,367,,194,122,452,,129,2,,,257,110,144,,,-2,,,,,
,211,-1,-825,,-868,-985,-922,,-667,-790,,,-730,-780,-897,,,3,,,,,
,260,-3,-4107,,-3124,-3873,-4944,,-2672,-3052,,,-3742,-3585,-3997,,,4,,,,,
,-368,27,-2011,,-1096,-1427,-2351,,-748,-731,,,-1563,-1326,-1461,,,-1,,,,,
,-555,-26,-508,,-203,-242,-547,,-98,-30,,,-22,-75,-168,,,-2,,,,,
,-509,3,784,,777,780,846,,671,781,,,802,802,729,,,,,,,,
,746,19,4054,,3080,3812,4881,,2562,3057,,,3546,3581,3912,,,2,,,,,
,-535,-9,1879,,1036,1505,2297,,744,766,,,1486,1276,1400,,,-11,,,,,
,548,-13,321,,114,295,432,,7,-13,,,-3,106,248,,,-5,,,,,
,-120,-7,-712,,-699,-750,-749,,-671,-805,,,-851,-784,-757,,,9,,,,,
,-195,30,-3980,,-3036,-3919,-4876,,-2522,-2972,,,-3663,-3651,-4017,,,5,,,,,
,172,-30,-2029,,-1082,-1603,-2398,,-738,-733,,,-1549,-1361,-1466,,,,,,,,
,-156,31,-513,,-194,-224,-620,,-112,-64,,,-33,-59,-33,,,-7,,,,,
,-288,-11,670,,682,871,702,,611,715,,,927,786,566,,,6,,,,,
,-118,-1,3983,,3012,3804,4861,,2534,2953,,,3696,3584,3944,,,-4,,,,,
,496,-18,1976,,1093,1495,2380,,746,784,,,1534,1314,1493,,,-1,,,,,
,47,,375,,218,133,500,,146,107,,,233,149,114,,,-6,,,,,
,-100,19,-474,,-469,-586,-485,,-785,-672,,,-1343,-877,-587,,,2,,,,,
,-252,-20,-4108,,-3135,-3716,-4812,,-2697,-3021,,,-3765,-3613,-3910,,,-3,,,,,
,344,2,-2159,,-1254,-1543,-2430,,-713,-773,,,-1397,-1269,-1618,,,-3,,,,,
,-109,17,-387,,-130,-256,-477,,4,-25,,,-100,-144,-194,,,11,,,,,
,360,-17,834,,814,810,775,,759,794,,,914,771,710,,,1,,,,,
,-427,4,3923,,3054,3787,4661,,2711,3012,,,3810,3606,3850,,,,,,,,
,-334,-32,1958,,966,1499,2360,,620,756,,,1373,1301,1499,,,-3,,,,,
,100,28,472,,71,166,499,,-81,-8,,,111,91,137,,,14,,,,,
,579,-10,-626,,-640,-856,-757,,-616,-781,,,-808,-819,-732,,,-5,,,,,
,-550,-17,-3979,,-2985,-3792,-4768,,-2569,-2975,,,-3832,-3640,-3929,,,-4,,,,,
,1551,,-1880,,-971,-1427,-2455,,-678,-746,,,-1503,-1344,-1558,,,5,,,,,
,295,27,-441,,-213,-136,-522,,-192,-28,,,-267,-140,-110,,,-6,,,,,
,-498,-41,571,,644,815,724,,603,805,,,760,778,756,,,-4,,,,,
,-1192,-7,4068,,3114,3789,4781,,2711,3072,,,3877,3612,3864,,,5,,,,,
,75,3,1976,,1090,1413,2383,,777,784,,,1620,1274,1409,,,2,,,,,
,-6,-2,498,,154,201,269,,79,25,,,88,76,5,,,-1,,,,,
,-507,-1,-700,,-766,-756,-923,,-677,-782,,,-890,-780,-777,,,-2,,,,,
,809,7,-4060,,-3148,-3901,-4777,,-2558,-3080,,,-3769,-3607,-3932,,,-9,,,,,
,-316,-4,-2325,,-1255,-1885,-2528,,-626,-881,,,-1227,-1191,-1368,,,2,,,,,
,45,-8,-551,,-243,-444,-607,,-88,-84,,,-170,-113,-40,,,8,,,,,
,2481,27,684,,671,869,810,,596,775,,,914,814,728,,,-6,,,,,
,-2346,-2,3990,,3009,3904,4632,,2519,3016,,,3791,3632,3855,,,-2,,,,,
,142,-32,2074,,1035,1546,2456,,506,744,,,1328,1300,1617,,,8,,,,,
,271,16,440,,200,192,497,,-44,57,,,-34,95,358,,,1,,,,,
,-456,3,-627,,-559,-787,-780,,-538,-748,,,-873,-846,-704,,,,,,,,
,-441,-18,-4105,,-3070,-3886,-4866,,-2516,-3096,,,-3553,-3563,-4001,,,7,,,,,
,743,14,-1877,,-1154,-1439,-2342,,-729,-785,,,-1349,-1185,-1480,,,7,,,,,
,343,-2,-551,,-281,-278,-497,,-99,-68,,,-31,-25,-37,,,1,,,,,
,91,-1,565,,659,671,645,,723,741,,,925,786,657,,,2,,,,,
,3735,-12,4024,,3151,3869,4805,,2633,3087,,,3465,3465,3779,,,-16,,,,,
,-3475,3,1692,,1018,1446,2250,,639,780,,,1324,1226,1456,,,,,,,,
,-816,-2,548,,227,457,594,,86,40,,,226,200,200,,,-4,,,,,
,1622,-18,57,,-374,-429,-445,,-457,-733,,,-637,-813,-945,,,-3,,,,,
,-1819,21,-3715,,-2857,-3777,-4741,,-2548,-2970,,,-3858,-3686,-3873,,,15,,,,,
,-32,-17,-2348,,-1200,-1734,-2646,,-777,-772,,,-1496,-1294,-1426,,,-13,,,,,
,456,17,-589,,-178,-163,-547,,-120,-58,,,-241,-135,-121,,,3,,,,,
,6174,-19,429,,549,798,463,,690,711,,,1040,819,650,,,9,,,,,
,-3680,-2,3895,,2900,3807,4946,,2497,3029,,,3755,3618,3887,,,-13,,,,,
,-1159,23,1995,,1018,1513,2628,,556,796,,,1322,1257,1605,,,5,,,,,
,-1631,-23,228,,65,95,397,,-63,5,,,37,92,256,,,-4,,,,,
,-229,,-647,,-649,-708,-810,,-671,-780,,,-843,-808,-775,,,5,,,,,
,-47,-1,-3957,,-3016,-3741,-4935,,-2497,-2991,,,-3727,-3655,-4090,,,,,,,,
,860,1,-2045,,-1131,-1617,-2555,,-583,-765,,,-1214,-1234,-1537,,,-5,,,,,
,-606,1,-368,,-160,-328,-430,,11,-10,,,-148,-63,-9,,,5,,,,,
,337,-6,486,,693,613,740,,754,759,,,933,761,674,,,11,,,,,
,-163,5,4149,,3183,3953,4865,,2557,3052,,,3627,3615,3898,,,-7,,,,,
,1746,-11,2196,,1197,1778,2580,,632,783,,,1277,1255,1343,,,-3,,,,,
,-2239,12,377,,83,162,436,,4,-35,,,176,114,213,,,7,,,,,
,674,-2,-884,,-811,-1010,-848,,-716,-802,,,-717,-746,-633,,,,,,,,
,-382,-23,-4154,,-3157,-4018,-4919,,-2612,-3052,,,-3826,-3672,-3937,,,-17,,,,,
,521,24,-2218,,-1277,-1590,-2430,,-817,-764,,,-1506,-1331,-1450,,,1,,,,,
,-992,-2,-493,,-248,-117,-499,,-120,-28,,,-96,-134,-230,,,-1,,,,,
,814,-30,721,,775,842,712,,688,801,,,895,782,630,,,6,,,,,
,-468,,4004,,3179,3804,4916,,2692,3077,,,3776,3572,3959,,,2,,,,,
,78,2,1940,,1233,1507,2350,,858,773,,,1436,1287,1606,,,-4,,,,,
,-332,1,655,,388,356,565,,218,79,,,213,107,178,,,-5,,,,,
,1294,1,-464,,-554,-532,-600,,-701,-728,,,-900,-773,-694,,,9,,,,,
,-1425,-14,-3899,,-3015,-3698,-4756,,-2635,-2979,,,-3816,-3628,-3830,,,5,,,,,
,509,11,-2087,,-1226,-1695,-2589,,-674,-754,,,-1113,-1263,-1519,,,-3,,,,,
,-374,1,-458,,-286,-374,-443,,-81,30,,,-288,-177,-276,,,-1,,,,,
,-62,-2,561,,548,682,715,,446,699,,,662,802,729,,,-5,,,,,
,432,-12,3922,,3016,3922,4768,,2449,2995,,,3524,3622,3922,,,1,,,,,
,190,15,2158,,1203,1710,2647,,753,807,,,1397,1285,1431,,,-1,,,,,
,-530,-12,192,,41,62,510,,-76,-26,,,129,143,263,,,3,,,,,
,-151,10,-767,,-681,-988,-945,,-588,-779,,,-738,-846,-809,,,1,,,,,
,86,1,-4180,,-3097,-3922,-5031,,-2546,-3040,,,-3650,-3597,-3945,,,1,,,,,
,138,-2,-2149,,-1198,-1494,-2476,,-696,-780,,,-1395,-1244,-1448,,,,,,,,
,1744,2,-362,,-43,-82,-496,,53,24,,,-68,-134,-138,,,-3,,,,,
,-2035,1,513,,651,709,847,,538,761,,,718,768,1001,,,-1,,,,,
,61,-6,4012,,3049,3726,4809,,2523,2995,,,3709,3603,4027,,,11,,,,,
,141,-6,2053,,1011,1538,2493,,509,759,,,1220,1287,1601,,,-9,,,,,
,-246,,480,,154,445,617,,10,1,,,260,160,105,,,-1,,,,,
,730,-21,-637,,-708,-724,-787,,-567,-791,,,-476,-716,-853,,,-1,,,,,
,-713,3,-4177,,-3095,-3994,-5036,,-2583,-3047,,,-3716,-3629,-3954,,,-7,,,,,
,285,,-2331,,-1144,-1766,-2679,,-640,-788,,,-1427,-1284,-1501,,,11,,,,,
,-78,16,-238,,-63,-87,-413,,48,81,,,-158,-186,-318,,,5,,,,,
,589,-18,625,,659,882,698,,614,780,,,719,776,702,,,-6,,,,,
,-845,,4091,,3183,3926,4872,,2645,3050,,,3762,3677,4048,,,-4,,,,,
,283,-1,2225,,1262,1625,2584,,745,726,,,1552,1294,1549,,,5,,,,,
,-59,1,403,,212,230,543,,92,-5,,,159,83,284,,,-5,,,,,
,133,,-721,,-692,-763,-781,,-676,-766,,,-704,-842,-950,,,9,,,,,
,125,,-4033,,-3188,-3724,-4884,,-2770,-3029,,,-3942,-3630,-3935,,,-1,,,,,
,563,1,-2101,,-1219,-1539,-2465,,-727,-793,,,-1341,-1230,-1446,,,5,,,,,
,-759,-3,-584,,-279,-434,-445,,-60,-84,,,-149,-112,-6,,,-7,,,,,
,-207,3,676,,669,640,647,,591,706,,,727,760,827,,,2,,,,,
,178,-2,3904,,3052,3828,4758,,2672,3030,,,3753,3544,3812,,,-13,,,,,
,274,3,2147,,1223,1832,2637,,703,848,,,1386,1262,1456,,,17,,,,,
,-69,-20,523,,227,323,488,,-19,26,,,206,168,209,,,3,,,,,
,-202,16,-618,,-595,-871,-852,,-550,-804,,,-565,-766,-840,,,-4,,,,,
,1285,1,-4056,,-3113,-4007,-4940,,-2586,-3060,,,-3683,-3596,-3965,,,-5,,,,,
,59,-1,-2185,,-1226,-1682,-2572,,-680,-758,,,-1367,-1303,-1507,,,1,,,,,
,-1354,-16,-378,,-128,-60,-445,,56,65,,,-41,-163,-218,,,-6,,,,,
,-338,17,699,,698,925,952,,610,813,,,608,756,884,,,-1,,,,,
,3869,-18,4200,,3194,3922,4941,,2542,3056,,,3604,3557,3801,,,5,,,,,
,-3758,-7,2086,,1095,1465,2435,,646,791,,,1402,1260,1514,,,-4,,,,,
,194,25,470,,111,266,517,,-84,-14,,,105,134,189,,,-2,,,,,
,483,-18,-998,,-825,-816,-944,,-689,-829,,,-763,-726,-722,,,13,,,,,
,-165,,-4125,,-3095,-3957,-5001,,-2482,-3047,,,-3654,-3631,-3956,,,-7,,,,,
,-352,,-1875,,-1003,-1631,-2390,,-527,-732,,,-1359,-1309,-1494,,,-7,,,,,
,363,,-369,,-133,-283,-437,,9,-22,,,-101,-107,-10,,,-9,,,,,
,-275,-8,490,,659,808,659,,606,720,,,901,812,849,,,9,,,,,
,-124,9,4142,,3106,4053,4952,,2540,3022,,,3745,3607,3808,,,3,,,,,
,648,-1,2058,,1088,1509,2376,,714,745,,,1422,1285,1490,,,10,,,,,
,-456,,307,,126,46,325,,24,-12,,,237,127,292,,,-15,,,,,
,-310,1,-865,,-769,-857,-763,,-849,-760,,,-921,-834,-814,,,4,,,,,
,330,-38,-3989,,-3126,-3845,-4949,,-2828,-3052,,,-3933,-3604,-3851,,,3,,,,,
,562,37,-2086,,-1173,-1603,-2478,,-730,-813,,,-1382,-1203,-1495,,,7,,,,,
,-752,-24,-524,,-110,-203,-481,,7,-21,,,-97,-178,-306,,,-2,,,,,
,809,25,504,,699,630,681,,793,720,,,1165,797,732,,,-8,,,,,
,-740,-43,4058,,3068,3883,5003,,2552,3033,,,3422,3578,4044,,,-9,,,,,
,139,18,1984,,1010,1511,2359,,725,771,,,1433,1349,1546,,,8,,,,,
,-575,,506,,216,332,353,,96,57,,,327,128,-164,,,3,,,,,
,345,17,-630,,-712,-744,-730,,-781,-799,,,-711,-742,-741,,,12,,,,,
,1514,-19,-4192,,-3073,-3946,-4858,,-2567,-3056,,,-3674,-3575,-3757,,,-12,,,,,
,-1256,-17,-2104,,-1074,-1699,-2594,,-455,-756,,,-1225,-1246,-1398,,,11,,,,,
,713,1,-247,,-60,-179,-624,,150,-28,,,37,-100,-170,,,-5,,,,,
,-1022,2,635,,618,935,916,,524,751,,,767,773,777,,,-15,,,,,
,272,-4,3887,,3038,3921,4964,,2514,3048,,,3736,3627,3935,,,-1,,,,,
,-128,2,2038,,1082,1549,2570,,631,787,,,1405,1265,1563,,,13,,,,,
,-118,-17,430,,176,165,433,,-50,7,,,-72,23,138,,,7,,,,,
,-186,18,-867,,-713,-882,-993,,-631,-800,,,-785,-800,-764,,,-7,,,,,
,82,-1,-3851,,-3020,-3661,-4749,,-2665,-3039,,,-3765,-3619,-3984,,,,,,,,
,-138,,-1869,,-1075,-1410,-2241,,-726,-750,,,-1376,-1303,-1538,,,,,,,,
,360,-14,-455,,-122,-282,-435,,139,-43,,,123,-79,-100,,,-10,,,,,
,-52,3,293,,588,585,581,,726,726,,,848,829,815,,,3,,,,,
,3906,-2,4189,,3139,3987,4849,,2672,3111,,,3640,3580,3858,,,7,,,,,
,-3312,2,1945,,1109,1671,2451,,736,822,,,1331,1228,1402,,,,,,,,
,-428,8,433,,231,295,430,,43,14,,,159,123,161,,,4,,,,,
,143,-8,-633,,-611,-792,-844,,-648,-776,,,-746,-753,-581,,,12,,,,,
,-196,-3,-4098,,-3164,-3981,-4842,,-2748,-3043,,,-3841,-3570,-3715,,,-6,,,,,
,-144,,-2240,,-1292,-1668,-2489,,-772,-753,,,-1268,-1259,-1573,,,-9,,,,,
,78,-16,-474,,-364,-157,-427,,-280,-11,,,-163,-153,-219,,,-5,,,,,
,-211,-2,421,,601,750,730,,596,710,,,846,800,757,,,-9,,,,,
,653,14,3807,,3080,3742,4677,,2699,3033,,,3856,3614,3887,,,10,,,,,
,-182,-13,2312,,1309,1554,2440,,893,815,,,1505,1257,1435,,,11,,,,,
,-446,-1,-431,,-168,-67,17,,-42,-49,,,166,204,199,,,-8,,,,,
,-7,,-779,,-687,-584,-627,,-648,-752,,,-935,-815,-936,,,-8,,,,,
,4279,2,-3022,,-2676,-3383,-4198,,-2408,-2921,,,-3680,-3629,-3911,,,2,,,,,
,-3680,-2,-1493,,-1042,-1491,-2126,,-729,-782,,,-1246,-1259,-1301,,,-6,,,,,
,-487,-8,-756,,-245,-521,-873,,7,-86,,,101,-95,-82,,,12,,,,,
,346,8,378,,558,788,767,,518,795,,,547,789,834,,,3,,,,,
,771,-9,4346,,3021,4107,5207,,2409,3034,,,3639,3639,4057,,,-7,,,,,
,-946,-4,1797,,939,1440,2360,,586,730,,,1439,1264,1598,,,-3,,,,,
,-93,14,144,,123,99,314,,110,51,,,252,90,164,,,-3,,,,,
,1192,-21,-342,,-518,-692,-757,,-584,-737,,,-802,-873,-857,,,2,,,,,
,-970,21,-4147,,-3050,-3873,-4914,,-2520,-3044,,,-3746,-3607,-3894,,,-2,,,,,
,-517,-2,-2028,,-1145,-1445,-2356,,-691,-770,,,-1396,-1279,-1546,,,10,,,,,
,-189,-25,-643,,-309,-259,-560,,-101,-27,,,-124,-114,-215,,,-2,,,,,
,1657,-5,512,,578,573,655,,658,727,,,806,811,823,,,-10,,,,,
,-1163,1,3911,,2972,3619,4671,,2577,2955,,,3944,3696,4100,,,7,,,,,
,-297,-2,2061,,1049,1588,2515,,561,742,,,1294,1274,1542,,,3,,,,,
,391,23,511,,186,446,599,,-80,28,,,-114,137,245,,,-6,,,,,
,151,-2,-764,,-711,-767,-812,,-669,-792,,,-645,-754,-868,,,4,,,,,
,338,-21,-4243,,-2981,-4071,-5053,,-2381,-3019,,,-3416,-3563,-4046,,,2,,,,,
,-208,1,-1926,,-988,-1625,-2563,,-604,-746,,,-1432,-1330,-1585,,,13,,,,,
,636,-2,-537,,-248,-240,-470,,-209,-35,,,-254,-137,-95,,,-5,,,,,
,-1307,2,593,,697,935,858,,583,830,,,634,717,698,,,-6,,,,,
,1244,-12,4075,,3081,3907,4855,,2551,3064,,,3701,3613,3924,,,-3,,,,,
,164,,1816,,905,1396,2463,,600,739,,,1495,1357,1628,,,-10,,,,,
,-786,19,410,,48,123,535,,8,-18,,,298,190,249,,,1,,,,,
,-805,-9,-804,,-617,-849,-935,,-510,-832,,,-643,-770,-779,,,5,,,,,
,1371,-10,-3954,,-2975,-3690,-4940,,-2522,-3019,,,-3685,-3620,-4033,,,5,,,,,
,-648,27,-1842,,-1067,-1423,-2293,,-620,-710,,,-1285,-1258,-1637,,,-3,,,,,
,-231,-20,-750,,-243,-482,-645,,170,-36,,,128,-67,-115,,,13,,,,,
,2964,16,675,,536,720,781,,529,820,,,636,824,1064,,,-15,,,,,
,-1417,-29,4200,,3178,4003,4929,,2504,3094,,,3679,3568,3980,,,-8,,,,,
,-1108,19,1761,,1037,1531,2373,,712,723,,,1674,1357,1596,,,10,,,,,
,-349,10,339,,62,224,588,,-80,-27,,,146,180,354,,,3,,,,,
,-324,-17,-459,,-625,-770,-599,,-681,-818,,,-788,-766,-642,,,5,,,,,
,647,10,-4194,,-3132,-4023,-5066,,-2612,-3048,,,-3585,-3629,-3959,,,-3,,,,,
,-656,-10,-1882,,-1147,-1523,-2511,,-725,-727,,,-1444,-1314,-1631,,,-2,,,,,
,546,-1,-592,,-285,-217,-448,,-148,-83,,,-356,-111,-82,,,-6,,,,,
,-370,2,706,,738,794,728,,705,739,,,1051,865,850,,,6,,,,,
,51,-2,4212,,3204,3854,4810,,2688,3017,,,3863,3648,3902,,,,,,,,
,592,-11,1747,,1036,1419,2440,,705,821,,,1366,1289,1600,,,8,,,,,
,79,5,467,,142,239,525,,38,6,,,-26,60,259,,,-10,,,,,
,-473,2,-646,,-738,-697,-912,,-659,-817,,,-829,-849,-923,,,-1,,,,,
,391,2,-4231,,-3110,-3896,-4908,,-2576,-3048,,,-3690,-3625,-3968,,,1,,,,,
,-233,-18,-1948,,-1092,-1658,-2533,,-585,-746,,,-1335,-1269,-1489,,,4,,,,,
,-207,26,-194,,-136,-222,-384,,-53,63,,,-38,-146,-217,,,,,,,,
,-368,-29,836,,729,914,1100,,507,873,,,705,736,825,,,9,,,,,
,533,19,4125,,3138,4097,4940,,2493,3047,,,3702,3634,3926,,,-13,,,,,
,-414,-1,2226,,1209,1698,2553,,710,766,,,1425,1325,1591,,,-1,,,,,
,549,-16,416,,237,133,481,,185,4,,,293,112,198,,,9,,,,,
,-252,18,-894,,-823,-1032,-970,,-612,-788,,,-595,-848,-1001,,,-10,,,,,
,579,-18,-4134,,-3217,-3972,-4977,,-2748,-3022,,,-3827,-3596,-4030,,,10,,,,,
,-872,,-2052,,-1140,-1569,-2595,,-691,-820,,,-1555,-1255,-1458,,,-4,,,,,
,1357,-4,-440,,-212,-267,-429,,-27,-81,,,-22,-63,-132,,,-12,,,,,
,-1405,2,385,,587,628,793,,698,771,,,834,772,867,,,2,,,,,
,1190,1,4223,,3285,3872,4829,,2795,3102,,,3855,3558,3904,,,1,,,,,
,-450,1,2273,,1305,1637,2477,,775,815,,,1446,1287,1555,,,6,,,,,
,610,-1,481,,148,337,503,,-93,21,,,140,121,76,,,-1,,,,,
,-1055,-4,-685,,-675,-724,-752,,-739,-776,,,-815,-793,-898,,,1,,,,,
,1301,4,-4036,,-3122,-3901,-4834,,-2615,-3019,,,-3671,-3563,-3839,,,-2,,,,,
,-1086,-10,-2101,,-1201,-1763,-2672,,-583,-807,,,-1223,-1285,-1511,,,-3,,,,,
,2690,11,-281,,-117,-204,-388,,-13,-3,,,-241,-164,-186,,,-7,,,,,
,-2626,-27,1119,,847,1229,1283,,619,867,,,678,792,805,,,3,,,,,
,-666,24,3930,,3037,3896,4914,,2523,2969,,,3871,3743,4162,,,9,,,,,
,4,-26,1319,,765,1177,2229,,666,656,,,1658,1362,1587,,,,,,,,
,330,26,-189,,-139,-152,180,,-8,-48,,,201,163,204,,,4,,,,,
,-529,-1,302,,-196,-548,-674,,-432,-741,,,-743,-795,-849,,,1,,,,,
,483,-31,-3213,,-2676,-3507,-4733,,-2395,-2978,,,-3799,-3616,-3983,,,-4,,,,,
,185,32,-2094,,-1135,-1567,-2498,,-675,-780,,,-1274,-1294,-1508,,,7,,,,,
,2140,,-708,,-256,-385,-448,,-135,-29,,,-157,-85,-59,,,-5,,,,,
,-1994,-1,923,,827,812,925,,693,797,,,880,856,887,,,-7,,,,,
,-688,-25,4037,,3196,3953,4753,,2711,3077,,,3952,3665,3911,,,1,,,,,
,442,-6,1697,,1130,1540,2126,,821,789,,,1658,1346,1477,,,8,,,,,
,153,-10,696,,304,375,905,,102,78,,,-8,48,174,,,-5,,,,,
,-189,18,-768,,-769,-810,-560,,-748,-717,,,-943,-879,-773,,,8,,,,,
,14,-8,-4179,,-3125,-4013,-5139,,-2522,-3008,,,-3732,-3637,-3869,,,1,,,,,
,310,,-1968,,-1083,-1540,-2517,,-757,-800,,,-1588,-1301,-1428,,,-11,,,,,
,-466,6,-199,,-77,-88,-472,,-101,-13,,,-135,-96,-429,,,1,,,,,
,402,-16,793,,723,819,722,,690,761,,,963,829,680,,,-10,,,,,
,-659,16,3853,,2990,3740,4902,,2540,3006,,,3682,3608,4105,,,7,,,,,
,-261,-16,1903,,1097,1469,2461,,727,781,,,1464,1241,1544,,,7,,,,,
,902,16,592,,275,322,448,,255,52,,,479,90,-192,,,6,,,,,
,28,-16,-653,,-731,-700,-813,,-750,-844,,,-865,-760,-851,,,-7,,,,,
,-118,,-4177,,-3195,-3907,-4872,,-2715,-3092,,,-3853,-3585,-3728,,,-4,,,,,
,-144,,-1782,,-1018,-1527,-2219,,-597,-726,,,-1495,-1311,-1494,,,-1,,,,,
,-220,-6,-765,,-382,-538,-664,,-7,-104,,,1,-83,-32,,,4,,,,,
,943,-16,437,,534,671,530,,636,715,,,944,804,802,,,5,,,,,
,-1138,4,4010,,3044,3928,4858,,2568,3035,,,3864,3639,3785,,,-2,,,,,
,-315,18,2117,,1191,1570,2434,,809,825,,,1499,1299,1384,,,2,,,,,
,1163,,579,,241,252,563,,123,43,,,175,131,253,,,-6,,,,,
,-177,-1,-709,,-645,-811,-768,,-683,-801,,,-800,-737,-614,,,-4,,,,,
,-725,-4,-4152,,-3032,-3937,-5126,,-2559,-3096,,,-3626,-3587,-3951,,,2,,,,,
,269,-27,-2090,,-1238,-1510,-2399,,-829,-799,,,-1277,-1215,-1489,,,10,,,,,
,-268,13,-188,,-180,-30,-210,,-254,54,,,-224,-75,-23,,,-7,,,,,
,666,1,616,,752,772,844,,742,806,,,801,755,927,,,6,,,,,
,582,-4,4206,,3329,3931,4963,,2859,3108,,,3897,3556,3781,,,-8,,,,,
,-818,-10,1987,,1015,1574,2521,,586,791,,,1404,1365,1548,,,-5,,,,,
,173,1,522,,144,367,638,,-20,-4,,,52,136,99,,,8,,,,,
,389,,-514,,-677,-652,-640,,-778,-816,,,-991,-807,-764,,,-12,,,,,
,-190,13,-3905,,-2902,-3881,-4876,,-2472,-3051,,,-3780,-3671,-3966,,,8,,,,,
,-459,-30,-1948,,-1023,-1599,-2454,,-547,-753,,,-1240,-1314,-1610,,,,,,,,
,61,29,-698,,-292,-334,-576,,-58,-42,,,18,-50,-134,,,5,,,,,
,635,-30,395,,522,799,718,,675,748,,,825,789,754,,,8,,,,,
,-269,-3,4340,,3194,4012,5022,,2585,3062,,,3591,3594,3885,,,4,,,,,
,89,,2260,,1211,1492,2379,,709,770,,,1507,1308,1521,,,-7,,,,,
,473,25,185,,93,1,342,,61,-18,,,221,144,269,,,,,,,,
,-1008,-21,-866,,-825,-917,-998,,-717,-840,,,-726,-734,-777,,,-8,,,,,
,1720,-2,-4080,,-3166,-3797,-4928,,-2688,-3105,,,-3619,-3582,-3965,,,-3,,,,,
,-1780,38,-2465,,-1304,-1692,-2710,,-712,-792,,,-1202,-1249,-1638,,,-4,,,,,
,-149,-53,-884,,-298,-448,-602,,-2,-11,,,-89,-150,-179,,,2,,,,,
,677,30,1337,,1023,1001,1222,,740,823,,,627,747,897,,,7,,,,,
,-152,-30,4839,,3482,4186,5178,,2827,3129,,,3745,3583,3865,,,-4,,,,,
,-525,13,2644,,1462,1979,2828,,895,890,,,1237,1201,1393,,,6,,,,,
,526,2,687,,226,361,622,,140,80,,,327,113,29,,,3,,,,,
,51,-2,-828,,-908,-928,-725,,-849,-807,,,-658,-742,-712,,,-6,,,,,
,439,4,-4065,,-3142,-3917,-4926,,-2722,-3062,,,-3843,-3630,-3803,,,6,,,,,
,-255,3,-1999,,-1139,-1597,-2285,,-693,-766,,,-1400,-1269,-1417,,,-5,,,,,
,306,-16,-469,,-269,-104,-435,,-183,-9,,,-241,-90,-43,,,,,,,,
,-208,13,446,,556,698,651,,543,758,,,905,873,1045,,,-4,,,,,
,-650,-4,4108,,3199,3821,4892,,2822,3038,,,4064,3659,3871,,,-5,,,,,
,467,-28,2165,,1306,1565,2503,,921,841,,,1318,1199,1351,,,7,,,,,
,-153,17,472,,236,328,485,,31,48,,,-231,-7,76,,,-9,,,,,
,-96,1,-740,,-806,-736,-839,,-781,-846,,,-903,-805,-858,,,7,,,,,
,-171,-21,-4209,,-3340,-3998,-4886,,-2817,-3091,,,-3592,-3509,-3774,,,1,,,,,
,2636,4,-1941,,-1112,-1623,-2421,,-653,-753,,,-1283,-1253,-1495,,,6,,,,,
,-2623,18,-432,,-92,-347,-652,,146,-45,,,102,-61,-256,,,-7,,,,,
,24,-14,826,,807,853,888,,752,780,,,921,800,711,,,,,,,,
,756,31,4183,,3127,4079,5012,,2520,3055,,,3575,3553,3899,,,7,,,,,
,-39,-48,2163,,1074,1670,2621,,598,802,,,1318,1283,1640,,,-2,,,,,
,-1298,9,466,,195,216,566,,148,11,,,401,192,342,,,4,,,,,
,567,-9,-854,,-705,-893,-836,,-649,-842,,,-704,-745,-636,,,2,,,,,
,-223,13,-3913,,-3035,-3801,-4789,,-2590,-3042,,,-3838,-3650,-3906,,,-8,,,,,
,411,-13,-1911,,-1112,-1471,-2386,,-694,-766,,,-1400,-1286,-1587,,,,,,,,
,35,9,-180,,-8,-49,-349,,39,60,,,-187,-61,-227,,,-1,,,,,
,-241,-9,809,,745,801,876,,707,764,,,891,863,860,,,3,,,,,
,619,-6,3863,,2974,3698,4769,,2670,2998,,,4031,3649,3955,,,-10,,,,,
,-669,18,2143,,1247,1676,2481,,835,862,,,1356,1205,1528,,,3,,,,,
,688,-12,464,,191,333,680,,30,57,,,192,147,137,,,2,,,,,
,-748,9,-579,,-649,-694,-725,,-702,-802,,,-792,-752,-751,,,-2,,,,,
,322,-27,-3886,,-2923,-3733,-4719,,-2512,-2991,,,-3795,-3648,-3952,,,8,,,,,
,15,-2,-2165,,-1265,-1711,-2416,,-776,-825,,,-1377,-1266,-1322,,,-3,,,,,
,-441,-1,-337,,-233,-208,-428,,-201,-41,,,-293,-179,-160,,,-14,,,,,
,74,21,487,,556,797,602,,629,758,,,991,805,656,,,6,,,,,
,111,-14,3808,,2952,3802,4724,,2673,3033,,,3975,3681,3913,,,7,,,,,
,-72,-6,2185,,1233,1581,2462,,693,799,,,1174,1231,1485,,,4,,,,,
,408,7,477,,283,198,520,,129,50,,,-68,34,135,,,3,,,,,
,9,-16,-672,,-694,-791,-788,,-680,-841,,,-727,-750,-801,,,4,,,,,
,-261,9,-4059,,-3127,-3793,-4872,,-2660,-3081,,,-3617,-3560,-3878,,,-17,,,,,
,-354,7,-1765,,-1037,-1362,-2298,,-598,-711,,,-1475,-1282,-1589,,,2,,,,,
,2232,-5,-346,,-208,-305,-653,,56,-13,,,-16,-58,-154,,,11,,,,,
,-1384,31,445,,673,608,757,,738,757,,,869,810,830,,,-2,,,,,
,-487,-33,3968,,3094,3879,4896,,2556,3026,,,3861,3556,3892,,,2,,,,,
,603,-9,2429,,1296,1851,2653,,653,818,,,1371,1232,1395,,,-8,,,,,
,-341,-1,409,,197,299,500,,95,15,,,150,102,188,,,1,,,,,
,-48,10,-887,,-856,-945,-826,,-779,-822,,,-978,-826,-752,,,11,,,,,
,304,4,-4010,,-3086,-3964,-4964,,-2615,-3080,,,-3675,-3628,-4106,,,-5,,,,,
,-365,-14,-1896,,-1081,-1511,-2351,,-735,-780,,,-1468,-1324,-1586,,,-6,,,,,
,-105,-23,-511,,-237,-176,-569,,-69,-36,,,-117,-100,-170,,,-10,,,,,
,245,24,561,,568,803,856,,550,761,,,791,822,852,,,-2,,,,,
,-251,-21,4194,,3107,3832,5054,,2623,3024,,,3909,3667,4047,,,16,,,,,
,658,13,2220,,1210,1533,2520,,774,794,,,1361,1273,1582,,,2,,,,,
,673,6,160,,147,190,365,,130,37,,,264,136,155,,,2,,,,,
,1458,8,-487,,-564,-582,-692,,-558,-720,,,-689,-855,-1015,,,-10,,,,,
,-2107,-5,-3660,,-2908,-3663,-4661,,-2570,-2962,,,-3793,-3670,-4064,,,-1,,,,,
,-344,-2,-2060,,-1137,-1638,-2415,,-746,-756,,,-1449,-1254,-1300,,,6,,,,,
,-483,-1,-572,,-246,-368,-615,,-63,-67,,,-104,-108,-169,,,3,,,,,
,473,-13,471,,502,735,733,,513,725,,,765,792,847,,,,,,,,
,2086,-18,4243,,3141,4059,4969,,2599,3073,,,3726,3609,3889,,,-3,,,,,
,-2287,32,2234,,1190,1625,2458,,691,801,,,1323,1236,1447,,,-1,,,,,
,-425,-32,504,,197,225,537,,37,62,,,256,134,271,,,-2,,,,,
,282,12,-639,,-650,-885,-735,,-614,-784,,,-739,-792,-667,,,-2,,,,,
,-308,,-4013,,-3043,-3845,-4689,,-2646,-3013,,,-3894,-3663,-3888,,,1,,,,,
,575,-3,-1876,,-1003,-1391,-2371,,-531,-755,,,-1198,-1268,-1664,,,4,,,,,
,-495,4,-287,,-201,-192,-490,,-92,-52,,,-118,-42,-127,,,6,,,,,
,193,-27,875,,775,824,930,,714,783,,,770,798,901,,,-13,,,,,
,14,26,4153,,3159,3825,4913,,2648,3069,,,3897,3607,3995,,,-1,,,,,
,-106,-12,1985,,1041,1525,2419,,566,776,,,1299,1215,1407,,,4,,,,,
,419,-14,399,,109,334,433,,-14,42,,,206,135,-12,,,10,,,,,
,52,13,-470,,-561,-614,-566,,-641,-730,,,-876,-781,-750,,,-1,,,,,
,977,1,-3923,,-2979,-3835,-4842,,-2577,-3039,,,-3700,-3556,-3823,,,-14,,,,,
,-1231,3,-1796,,-999,-1568,-2401,,-591,-751,,,-1292,-1322,-1546,,,5,,,,,
,697,-3,-122,,-19,-167,-219,,57,45,,,-156,-204,-303,,,3,,,,,
,-507,-14,656,,766,918,710,,715,830,,,859,781,655,,,2,,,,,
,217,-8,3647,,3022,3734,4568,,2564,3038,,,3573,3581,3955,,,-6,,,,,
,6996,,1803,,1087,1460,2615,,775,797,,,1501,1314,1649,,,6,,,,,
,-3845,14,1396,,584,540,1210,,224,122,,,172,80,221,,,3,,,,,
,-3292,-9,-133,,-550,-645,-510,,-653,-800,,,-867,-840,-722,,,-4,,,,,
,-484,-2,-3699,,-3021,-3649,-4616,,-2721,-3072,,,-3895,-3564,-3879,,,-6,,,,,
,-333,2,-1926,,-1101,-1539,-2483,,-722,-755,,,-1338,-1257,-1658,,,-3,,,,,
,859,-13,-733,,-248,-358,-480,,8,24,,,14,-101,-236,,,4,,,,,
,-213,11,1018,,802,815,921,,780,794,,,895,825,922,,,-4,,,,,
,196,2,3854,,2934,3723,4758,,2431,3007,,,3609,3594,4045,,,-1,,,,,
,106,-13,2188,,1036,1600,2511,,490,710,,,1315,1278,1500,,,6,,,,,
,-233,-1,554,,128,217,426,,95,-30,,,326,157,37,,,-1,,,,,
,-91,-1,-820,,-653,-957,-929,,-547,-763,,,-708,-775,-872,,,3,,,,,
,-643,10,-4180,,-3097,-4041,-4913,,-2560,-3043,,,-3713,-3652,-3961,,,2,,,,,
,508,-30,-2189,,-1227,-1639,-2539,,-709,-822,,,-1332,-1291,-1509,,,,,,,,
,485,,-333,,-168,-30,-395,,-105,-15,,,-305,-140,-178,,,-10,,,,,
,-863,22,602,,618,793,722,,594,764,,,746,809,864,,,14,,,,,
,531,-22,3984,,3085,3759,4911,,2663,3052,,,3743,3585,4019,,,-9,,,,,
,-445,22,2197,,1295,1551,2479,,843,818,,,1484,1205,1436,,,8,,,,,
,28,-19,408,,190,238,358,,54,4,,,229,70,23,,,-2,,,,,
,484,,-727,,-709,-628,-735,,-830,-763,,,-1092,-853,-897,,,-4,,,,,
,104,-3,-4088,,-3127,-3822,-4975,,-2691,-3012,,,-3738,-3638,-3960,,,-11,,,,,
,-42,4,-2078,,-1160,-1665,-2427,,-576,-740,,,-1201,-1235,-1473,,,8,,,,,
,-206,,-453,,-224,-358,-306,,-80,38,,,-303,-101,-115,,,11,,,,,
,-360,3,637,,573,685,691,,492,719,,,745,836,853,,,-7,,,,,
,52,-4,4008,,3047,3955,4922,,2510,2963,,,3677,3594,3953,,,3,,,,,
,83,-3,2388,,1257,1717,2614,,759,809,,,1397,1255,1490,,,-3,,,,,
,145,4,492,,190,120,339,,111,62,,,250,142,267,,,1,,,,,
,1331,-4,-582,,-454,-773,-643,,-407,-711,,,-640,-853,-1060,,,3,,,,,
,-669,29,-3959,,-2994,-3770,-4706,,-2590,-3028,,,-3787,-3627,-4015,,,-5,,,,,
,-337,-55,-2025,,-1205,-1491,-2510,,-738,-784,,,-1243,-1277,-1544,,,-7,,,,,
,51,-4,-406,,-214,-231,-492,,-69,-14,,,-15,-81,-59,,,13,,,,,
,-199,30,763,,770,823,894,,656,807,,,705,809,965,,,-3,,,,,
,-474,-30,4024,,3082,3711,4769,,2651,3024,,,3781,3657,4036,,,-7,,,,,
,851,3,2069,,1167,1524,2427,,750,771,,,1419,1291,1453,,,-4,,,,,
,-701,17,530,,186,345,533,,-23,22,,,-41,109,86,,,2,,,,,
,-439,-20,-643,,-681,-762,-730,,-710,-771,,,-794,-763,-744,,,4,,,,,
,605,21,-4012,,-3046,-3892,-4725,,-2545,-3004,,,-3588,-3531,-3697,,,-5,,,,,
,437,,-2223,,-1246,-1739,-2481,,-745,-798,,,-1397,-1285,-1372,,,6,,,,,
,-567,-21,-503,,-235,-212,-462,,-156,-32,,,-295,-149,-198,,,-1,,,,,
,258,4,770,,713,957,763,,576,775,,,790,772,584,,,-8,,,,,
,1575,-4,4028,,3026,3866,4877,,2588,3004,,,3858,3665,3931,,,4,,,,,
,-688,4,2075,,1140,1480,2462,,782,809,,,1551,1296,1422,,,7,,,,,
,-780,-13,487,,320,187,402,,189,61,,,160,80,76,,,-2,,,,,
,144,13,-487,,-534,-692,-834,,-613,-775,,,-913,-854,-847,,,2,,,,,
,-584,,-3943,,-3023,-3733,-4688,,-2649,-3029,,,-3935,-3659,-3980,,,-3,,,,,
,-60,-13,-2064,,-1154,-1585,-2472,,-652,-812,,,-1358,-1260,-1447,,,-10,,,,,
,2945,,-270,,-110,-288,-450,,63,-14,,,53,-55,-26,,,11,,,,,
,-2672,9,724,,748,713,811,,613,780,,,887,822,796,,,7,,,,,
,-153,4,3937,,3096,3858,4781,,2548,3045,,,3739,3597,3867,,,1,,,,,
,764,-4,2153,,1168,1756,2495,,689,816,,,1293,1239,1532,,,-11,,,,,
,-749,-28,587,,280,429,681,,183,68,,,282,107,86,,,8,,,,,
,148,-2,-718,,-655,-798,-640,,-606,-787,,,-701,-768,-715,,,2,,,,,
,1718,-23,-4122,,-3078,-3907,-4821,,-2537,-2951,,,-3722,-3638,-3892,,,-3,,,,,
,-2065,45,-2007,,-1143,-1580,-2480,,-646,-746,,,-1471,-1355,-1646,,,3,,,,,
,1853,-1,-312,,-224,-124,-427,,-166,-41,,,-222,-133,-329,,,2,,,,,
,-1923,-43,764,,663,891,888,,510,761,,,623,782,816,,,3,,,,,
,1275,23,4168,,3127,3818,4955,,2643,3001,,,3869,3618,4046,,,13,,,,,
,-1108,6,2025,,1112,1378,2382,,706,725,,,1535,1326,1557,,,-13,,,,,
,261,-3,131,,-36,37,223,,-10,-46,,,430,163,105,,,-15,,,,,
,216,-38,-466,,-584,-569,-659,,-710,-749,,,-1213,-831,-795,,,5,,,,,
,149,35,-3947,,-2957,-3716,-4753,,-2635,-3016,,,-3894,-3565,-4070,,,9,,,,,
,-53,1,-1948,,-1161,-1664,-2289,,-747,-800,,,-1403,-1262,-1521,,,-1,,,,,
,-900,-34,-564,,-231,-411,-520,,15,-55,,,-77,-110,-57,,,-6,,,,,
,780,35,559,,704,739,585,,745,800,,,894,802,789,,,-5,,,,,
,-290,-33,4065,,3063,3883,4953,,2607,3071,,,3753,3602,3857,,,-4,,,,,
,281,-3,2076,,1078,1570,2456,,713,769,,,1357,1249,1451,,,9,,,,,
,94,-2,319,,59,65,407,,-30,-36,,,190,108,128,,,11,,,,,
,-371,40,-601,,-637,-841,-778,,-607,-759,,,-769,-774,-632,,,-13,,,,,
,392,-58,-4071,,-2943,-3768,-4766,,-2498,-2982,,,-3710,-3633,-4054,,,-2,,,,,
,-335,19,-2097,,-1125,-1574,-2496,,-660,-799,,,-1311,-1246,-1605,,,7,,,,,
,-75,,-218,,-190,-139,-291,,-147,-26,,,-308,-141,-17,,,-12,,,,,
,43,1,823,,778,905,850,,733,856,,,768,748,820,,,6,,,,,
,1140,51,3995,,3133,3829,4911,,2660,3065,,,3750,3548,3845,,,8,,,,,
,-744,-70,2095,,1072,1561,2576,,615,761,,,1410,1289,1564,,,-14,,,,,
,1011,19,450,,138,284,413,,-61,5,,,149,195,215,,,9,,,,,
,-1729,1,-715,,-635,-769,-779,,-610,-754,,,-671,-760,-828,,,11,,,,,
,569,-30,-3832,,-2896,-3889,-4879,,-2340,-3028,,,-3479,-3612,-4029,,,-6,,,,,
,380,9,-2051,,-1104,-1701,-2421,,-600,-788,,,-1304,-1244,-1365,,,-2,,,,,
,-604,-6,-247,,-46,-88,-294,,-52,-17,,,-353,-125,-96,,,2,,,,,
,339,-4,909,,778,1017,886,,585,751,,,728,823,718,,,-7,,,,,
,-1040,,4046,,3039,3888,4910,,2534,2992,,,3921,3656,3945,,,2,,,,,
,874,10,2137,,1095,1506,2482,,746,769,,,1411,1262,1450,,,3,,,,,
,314,-10,218,,19,11,379,,-57,-29,,,107,118,101,,,7,,,,,
,-354,-1,-872,,-721,-792,-900,,-754,-765,,,-835,-783,-777,,,-10,,,,,
,174,-1,-4013,,-3058,-3680,-4784,,-2691,-3000,,,-3935,-3614,-3852,,,8,,,,,
,-439,13,-1839,,-1040,-1421,-2409,,-604,-706,,,-1474,-1340,-1556,,,-13,,,,,
,-334,,-257,,24,-209,-250,,87,38,,,-14,-125,-149,,,-5,,,,,
,-17,-11,590,,810,778,863,,788,798,,,888,850,928,,,15,,,,,
,-300,,3935,,3068,3834,4704,,2766,3012,,,4014,3700,3935,,,-7,,,,,
,149,-20,2030,,1020,1593,2320,,682,757,,,1475,1291,1528,,,6,,,,,
,874,-3,550,,194,308,516,,31,40,,,37,41,35,,,-3,,,,,
,-781,20,-757,,-718,-899,-837,,-728,-790,,,-945,-854,-788,,,,,,,,
,720,-18,-4185,,-3144,-4031,-4911,,-2672,-3007,,,-3835,-3607,-3955,,,2,,,,,
,-673,2,-2080,,-1188,-1580,-2443,,-763,-778,,,-1532,-1296,-1587,,,-4,,,,,
,436,18,-445,,-244,-127,-373,,-120,-19,,,-350,-123,-170,,,-5,,,,,
,-377,-19,628,,664,793,788,,613,744,,,887,808,727,,,5,,,,,
,555,-1,3955,,3025,3698,4802,,2551,2984,,,3898,3692,4027,,,-10,,,,,
,-220,-12,1945,,1034,1376,2435,,628,699,,,1388,1300,1723,,,,,,,,
,541,12,472,,125,177,363,,55,-12,,,150,123,111,,,2,,,,,
,318,2,-532,,-703,-710,-815,,-678,-797,,,-757,-810,-1034,,,4,,,,,
,-1276,-1,-3963,,-2946,-3750,-4722,,-2547,-3035,,,-3691,-3609,-3923,,,3,,,,,
,-179,-11,-1852,,-968,-1487,-2210,,-620,-733,,,-1362,-1255,-1368,,,5,,,,,
,509,-1,-511,,-129,-320,-431,,25,2,,,-35,-132,-94,,,3,,,,,
,1647,9,710,,745,847,734,,672,775,,,725,736,760,,,-5,,,,,
,-1658,-9,4206,,3176,4053,4771,,2609,3044,,,3644,3560,3943,,,-3,,,,,
,421,2,1966,,1058,1515,2585,,696,786,,,1503,1250,1377,,,5,,,,,
,-323,-2,509,,280,193,539,,179,99,,,217,46,-2,,,-14,,,,,
,1264,-19,-474,,-545,-821,-691,,-627,-727,,,-972,-834,-780,,,6,,,,,
,-1390,-2,-3911,,-3057,-3828,-4770,,-2668,-3027,,,-3893,-3610,-3955,,,-2,,,,,
,-75,,-2216,,-1393,-1650,-2507,,-858,-842,,,-1292,-1163,-1444,,,2,,,,,
,164,24,-529,,-343,-290,-386,,-216,-51,,,-188,-39,10,,,12,,,,,
,329,-22,648,,650,722,903,,629,800,,,850,827,842,,,-11,,,,,
,5,,3859,,3098,3762,4893,,2637,3043,,,3796,3630,3970,,,12,,,,,
,-161,1,1965,,1160,1575,2454,,855,835,,,1537,1243,1385,,,-7,,,,,
,-291,6,453,,266,326,350,,86,23,,,75,40,50,,,-8,,,,,
,170,-19,-776,,-668,-774,-858,,-738,-808,,,-1003,-857,-745,,,-12,,,,,
,-290,12,-4415,,-3225,-4075,-5026,,-2631,-3089,,,-3695,-3560,-3881,,,,,,,,
,93,-1,-1898,,-1024,-1612,-2561,,-630,-799,,,-1447,-1307,-1669,,,8,,,,,
,653,2,-317,,-103,-219,-585,,28,-54,,,-274,-154,-198,,,9,,,,,
,-724,-12,328,,494,675,465,,629,729,,,813,852,790,,,8,,,,,
,226,11,4137,,3013,3866,4906,,2479,3050,,,3774,3645,3890,,,-1,,,,,
,-129,-10,2226,,1134,1592,2627,,646,830,,,1307,1240,1488,,,-1,,,,,
,-154,12,175,,-16,-43,345,,3,-29,,,312,156,222,,,-3,,,,,
,507,-12,-640,,-700,-774,-675,,-695,-771,,,-1080,-807,-708,,,-5,,,,,
,772,11,-3880,,-3055,-3689,-4807,,-2717,-3028,,,-3882,-3631,-3939,,,,,,,,
,-1294,-2,-2019,,-1182,-1543,-2392,,-762,-784,,,-1238,-1260,-1443,,,-6,,,,,
,267,-9,-243,,2,-165,-95,,102,30,,,35,-82,-142,,,8,,,,,
,-85,-1,954,,965,906,971,,894,877,,,1062,844,807,,,7,,,,,
,-256,-1,4220,,3144,3971,4987,,2676,3100,,,3858,3653,3935,,,-1,,,,,
,1457,-21,2123,,1152,1699,2504,,688,793,,,1382,1270,1320,,,-7,,,,,
,-1418,2,395,,146,221,384,,28,-52,,,210,69,97,,,-9,,,,,
,747,,-823,,-732,-930,-928,,-612,-827,,,-754,-786,-747,,,6,,,,,
,-576,1,-4402,,-3151,-4138,-5187,,-2500,-3057,,,-3636,-3567,-3747,,,-1,,,,,
,4284,-1,-2116,,-1170,-1582,-2446,,-791,-741,,,-1548,-1231,-1356,,,5,,,,,
,-3602,-1,-270,,-114,-87,-486,,-114,-36,,,-334,-73,-147,,,9,,,,,
,415,2,763,,823,844,747,,690,776,,,876,800,618,,,-10,,,,,
,-195,-10,3973,,3001,3798,4846,,2581,3024,,,3925,3642,3938,,,6,,,,,
,515,-1,2056,,1117,1460,2331,,736,794,,,1335,1312,1685,,,-11,,,,,
,-1490,28,354,,146,154,388,,10,17,,,38,41,94,,,,,,,,
,1566,-28,-736,,-743,-849,-855,,-681,-843,,,-692,-779,-995,,,3,,,,,
,-1022,16,-3780,,-2947,-3745,-4722,,-2501,-2989,,,-3694,-3625,-4115,,,4,,,,,
,-324,-5,-2034,,-1138,-1611,-2292,,-677,-754,,,-1569,-1308,-1490,,,-2,,,,,
,-734,-12,-273,,-207,-317,-374,,16,-8,,,-64,-83,-6,,,11,,,,,
,-62,-2,895,,750,849,854,,679,796,,,898,865,828,,,-1,,,,,
,68,3,4003,,3134,4021,4834,,2665,3033,,,3831,3640,3805,,,-9,,,,,
,2971,,2164,,1217,1655,2420,,795,777,,,1509,1239,1427,,,2,,,,,
,-2747,-1,483,,231,152,560,,130,7,,,222,92,226,,,3,,,,,
,3819,-22,-865,,-732,-976,-958,,-716,-812,,,-787,-850,-765,,,-5,,,,,
,-3705,24,-4435,,-3325,-4083,-5102,,-2826,-3104,,,-3878,-3608,-3920,,,-1,,,,,
,1395,-18,-2016,,-1225,-1509,-2439,,-791,-734,,,-1444,-1262,-1464,,,-11,,,,,
,-1465,13,-198,,-43,-53,-266,,-22,46,,,-231,-111,56,,,10,,,,,
,61,-27,514,,703,762,778,,715,785,,,696,813,906,,,-1,,,,,
,221,,4033,,3220,3892,5025,,2640,3117,,,3702,3577,3842,,,5,,,,,
,248,15,2062,,1188,1615,2633,,657,801,,,1320,1211,1436,,,-7,,,,,
,-335,-18,400,,170,328,539,,-43,27,,,-16,58,163,,,-6,,,,,
,-647,4,-414,,-681,-623,-523,,-687,-750,,,-981,-826,-817,,,4,,,,,
,959,-1,-3847,,-3015,-3878,-4879,,-2475,-3085,,,-3586,-3608,-4077,,,8,,,,,
,-294,9,-2176,,-1266,-1799,-2650,,-675,-841,,,-1274,-1165,-1285,,,3,,,,,
,-378,-10,-274,,-84,-232,-353,,62,-31,,,-184,-80,-82,,,2,,,,,
,-121,9,834,,804,1021,831,,767,767,,,934,800,647,,,-6,,,,,
,734,-9,4210,,3189,4048,4944,,2634,3062,,,3906,3624,3854,,,-2,,,,,
,-868,2,2249,,1188,1620,2621,,659,839,,,1371,1339,1667,,,7,,,,,
,129,-1,533,,302,225,438,,232,54,,,383,135,69,,,-7,,,,,
,-100,1,-614,,-634,-806,-944,,-519,-824,,,-605,-803,-965,,,-10,,,,,
,176,-22,-4033,,-3160,-3758,-4894,,-2786,-3064,,,-3889,-3624,-4015,,,6,,,,,
,413,18,-1925,,-1144,-1434,-2200,,-847,-762,,,-1521,-1311,-1597,,,2,,,,,
,-170,4,-526,,-204,-267,-481,,5,6,,,-113,-172,-245,,,7,,,,,
,368,-20,463,,650,628,898,,736,837,,,858,718,638,,,-7,,,,,
,4819,18,3963,,3087,3827,4788,,2592,3069,,,3677,3574,3911,,,-7,,,,,
,-3850,-19,1783,,1010,1543,2259,,615,753,,,1268,1275,1488,,,11,,,,,
,-1658,1,269,,117,185,334,,88,-19,,,199,157,83,,,11,,,,,
,517,-14,-555,,-612,-778,-695,,-600,-756,,,-905,-762,-625,,,-12,,,,,
,-191,3,-4194,,-3108,-4030,-4931,,-2693,-3073,,,-3792,-3577,-3682,,,-3,,,,,
,-56,-1,-2174,,-1246,-1718,-2518,,-877,-837,,,-1507,-1176,-1174,,,4,,,,,
,-67,12,-362,,-108,-120,-412,,-94,-52,,,-194,-97,-84,,,,,,,,
,512,-20,822,,800,907,882,,704,733,,,881,748,759,,,-3,,,,,
,-684,7,4221,,3181,3846,4958,,2673,2987,,,3655,3633,4129,,,-4,,,,,
,-175,2,1978,,1043,1320,2542,,684,734,,,1365,1302,1737,,,-1,,,,,
,269,-1,396,,67,140,408,,-4,-55,,,218,148,143,,,17,,,,,
,621,-1,-489,,-632,-585,-618,,-691,-773,,,-825,-769,-846,,,,,,,,
,-758,11,-3953,,-3005,-3703,-4677,,-2613,-2969,,,-3776,-3634,-3949,,,-12,,,,,
,2930,-9,-2027,,-1112,-1636,-2335,,-746,-721,,,-1552,-1259,-1323,,,14,,,,,
,-852,-21,-643,,-353,-448,-615,,-98,-31,,,-236,-179,-222,,,-5,,,,,
,-1976,25,513,,671,756,602,,769,812,,,909,738,571,,,-1,,,,,
,-440,-21,4265,,3306,4141,5011,,2745,3140,,,3787,3543,3793,,,-17,,,,,
,405,18,2202,,1335,1789,2507,,943,891,,,1498,1249,1285,,,9,,,,,
,-416,-20,485,,353,288,496,,145,81,,,268,125,99,,,6,,,,,
,241,-12,-753,,-641,-918,-815,,-659,-783,,,-843,-877,-827,,,-5,,,,,
,-144,10,-4103,,-3046,-3853,-4968,,-2538,-3053,,,-3791,-3671,-4001,,,-6,,,,,
,-19,1,-1896,,-1148,-1451,-2373,,-740,-791,,,-1483,-1296,-1748,,,-2,,,,,
,115,-12,-95,,-99,-60,-65,,-172,12,,,-344,-105,-170,,,5,,,,,
,1606,1,827,,747,866,1003,,671,835,,,960,800,753,,,,,,,,
,-1600,11,3941,,3040,3756,4859,,2498,3083,,,3678,3578,3958,,,6,,,,,
,351,-10,2004,,1039,1487,2380,,631,795,,,1417,1306,1540,,,-4,,,,100,
,258,9,438,,151,281,505,,-24,-6,,,82,133,183,,,3,,,,-100,
,-597,,-541,,-501,-683,-641,,-537,-756,,,-814,-792,-829,,,7,,,,,
,24,-8,-4076,,-3124,-3972,-4874,,-2524,-3040,,,-3642,-3557,-3848,,,1,,,,,
,127,-2,-2181,,-1273,-1765,-2579,,-670,-799,,,-1311,-1235,-1382,,,-5,,,,,
,-74,11,-548,,-306,-327,-590,,-67,-92,,,-149,-91,-60,,,-3,,,,,
,-118,-3,578,,629,854,684,,686,780,,,782,785,793,,,-2,,,,,
,990,11,3942,,3068,3815,4773,,2601,3005,,,3724,3637,4113,,,4,,,,,
,-954,-20,2019,,1102,1446,2515,,682,787,,,1458,1332,1769,,,,,,,,
,-71,2,316,,130,51,271,,67,-45,,,282,159,218,,,-1,,,,,
,275,-15,-785,,-815,-959,-904,,-877,-857,,,-875,-746,-753,,,-4,,,,,
,-213,15,-4116,,-3194,-3889,-4974,,-2733,-3105,,,-3801,-3626,-4015,,,-9,,,,,
,76,-21,-2083,,-1169,-1528,-2403,,-773,-768,,,-1416,-1278,-1433,,,6,,,,,
,746,-14,-401,,-21,-178,-318,,-107,8,,,-287,-165,-36,,,3,,,,,
,-762,3,668,,832,708,709,,755,774,,,729,729,863,,,-7,,,,,
,38,-2,4097,,3194,3925,4714,,2700,3029,,,3830,3573,3741,,,10,,,,,
,264,-2,2193,,1206,1768,2513,,771,826,,,1451,1236,1104,,,-3,,,,,
,-332,5,683,,329,405,811,,117,108,,,22,106,82,,,15,,,,,
,29,-2,-424,,-548,-664,-581,,-626,-727,,,-895,-821,-806,,,-13,,,,,
,-33,,-4023,,-3125,-3926,-4806,,-2535,-3039,,,-3692,-3651,-3941,,,-8,,,,,
,34,3,-2099,,-1146,-1639,-2514,,-649,-748,,,-1306,-1300,-1592,,,3,,,,,
,58,9,-495,,-218,-208,-532,,-72,-25,,,-79,-118,-272,,,-5,,,,,
,239,-10,748,,700,840,836,,660,775,,,917,838,845,,,9,,,,,
,-146,-1,4026,,2913,3839,4981,,2486,3029,,,3645,3580,3961,,,-7,,,,,
,50,10,1893,,1049,1437,2452,,669,786,,,1507,1260,1494,,,3,,,,,
,138,-30,487,,191,191,367,,-71,35,,,140,165,152,,,10,,,,,
,3487,19,-430,,-537,-578,-652,,-802,-794,,,-1049,-793,-807,,,-2,,,,,
,-2999,-22,-3978,,-2945,-3708,-4700,,-2544,-3036,,,-3804,-3602,-3798,,,1,,,,,
,-292,20,-1979,,-999,-1615,-2513,,-483,-770,,,-1202,-1209,-1398,,,4,,,,,
,-300,3,-452,,-70,-357,-610,,205,-23,,,11,-98,-105,,,3,,,,,
,-299,,497,,540,662,644,,635,730,,,822,782,818,,,-11,,,,,
,561,,4012,,2919,3921,5057,,2464,3010,,,3645,3630,4012,,,-1,,,,,
,-76,-31,2043,,1016,1579,2534,,615,792,,,1138,1293,1649,,,,,,,,
,966,-1,173,,24,-10,231,,27,-28,,,207,156,102,,,-4,,,,,
,-947,13,-765,,-676,-987,-1030,,-701,-849,,,-701,-791,-781,,,-1,,,,,
,-318,,-4105,,-3152,-3882,-4981,,-2712,-3078,,,-3713,-3581,-3889,,,-4,,,,,
,33,-12,-2162,,-1355,-1619,-2404,,-870,-795,,,-1337,-1185,-1380,,,-2,,,,,
,30,1,-270,,-18,-89,-348,,10,11,,,-266,-137,-109,,,-4,,,,,
,390,-1,807,,858,807,824,,840,810,,,834,672,473,,,15,,,,,
,-351,,3950,,3040,3694,4804,,2634,3063,,,3734,3508,3810,,,10,,,,,
,207,1,1930,,1020,1493,2425,,652,754,,,1352,1303,1649,,,-12,,,,,
,-379,11,375,,40,319,557,,-129,10,,,-81,109,282,,,4,,,,,
,-104,-13,-438,,-589,-595,-585,,-582,-701,,,-744,-797,-828,,,15,,,,,
,31,1,-3916,,-2932,-3816,-4805,,-2428,-2972,,,-3608,-3602,-4043,,,-6,,,,,
,3185,-22,-1862,,-959,-1493,-2326,,-628,-737,,,-1475,-1290,-1532,,,-6,,,,,
,-3336,22,-186,,32,11,-279,,-62,16,,,-225,-176,-224,,,4,,,,,
,249,,668,,712,999,793,,459,772,,,713,803,803,,,-4,,,,,
,-108,1,4078,,3178,3955,4993,,2609,3069,,,3825,3603,3891,,,-4,,,,,
,41,-1,2047,,1153,1477,2540,,759,764,,,1628,1255,1430,,,3,,,,,
,151,1,338,,109,33,431,,-9,-26,,,96,90,230,,,-13,,,,,
,125,-2,-748,,-782,-958,-1080,,-712,-810,,,-952,-792,-725,,,8,,,,,
,36,-19,-4047,,-3103,-3843,-4952,,-2594,-3060,,,-3885,-3593,-3942,,,2,,,,,
,1,,-2077,,-1144,-1668,-2534,,-655,-837,,,-1243,-1211,-1426,,,-1,,,,,
,-230,-13,-607,,-426,-500,-635,,-108,-112,,,-126,-62,48,,,9,,,,,
,-30,3,647,,653,660,725,,734,797,,,767,772,797,,,-15,,,,,
,-53,,3962,,3093,3825,4914,,2680,3048,,,3681,3596,3858,,,4,,,,,
,-208,,2019,,1069,1642,2440,,706,773,,,1364,1319,1457,,,2,,,,,
,49,,208,,29,205,481,,-12,62,,,137,91,50,,,1,,,,,
,184,10,-821,,-883,-938,-839,,-900,-774,,,-933,-800,-774,,,1,,,,,
,211,,-4085,,-3107,-3985,-4956,,-2670,-3037,,,-3689,-3653,-3920,,,-2,,,,,
,-255,2,-2068,,-1158,-1539,-2420,,-816,-753,,,-1520,-1313,-1453,,,5,,,,,
,171,-1,-221,,-82,-39,-326,,-139,-54,,,-209,-45,20,,,-1,,,,,
,3689,-13,859,,847,920,867,,857,724,,,1068,876,723,,,-10,,,,,
,-3835,-17,4030,,3082,3758,4898,,2631,2972,,,3804,3609,3916,,,10,,,,,
,1272,18,2001,,1044,1355,2337,,631,709,,,1426,1305,1591,,,4,,,,,
,-1414,2,502,,254,225,506,,-17,37,,,-148,70,220,,,-1,,,,,
,422,-24,-717,,-810,-750,-830,,-741,-782,,,-833,-807,-949,,,-5,,,,,
,93,21,-3881,,-2993,-3705,-4895,,-2523,-2985,,,-3720,-3661,-4022,,,-9,,,,,
,-434,-18,-1984,,-986,-1565,-2399,,-519,-692,,,-1449,-1258,-1358,,,15,,,,,
,30,,-850,,-164,-472,-723,,169,34,,,31,-48,-115,,,7,,,,,
,132,-13,355,,655,801,723,,709,805,,,699,734,617,,,-16,,,,,
,20,2,4653,,3377,4319,5319,,2706,3098,,,3681,3565,3821,,,-1,,,,,
,1607,-1,2891,,1493,1934,2850,,859,856,,,1522,1353,1563,,,8,,,,,
,-1750,13,271,,125,181,454,,56,51,,,284,144,150,,,-11,,,,,
,14,-13,-1060,,-742,-1007,-1001,,-686,-828,,,-666,-774,-746,,,3,,,,,
,307,12,-4267,,-3173,-3909,-4947,,-2788,-3075,,,-3891,-3588,-3791,,,2,,,,,
,-706,-11,-2110,,-1273,-1501,-2457,,-935,-810,,,-1554,-1274,-1388,,,7,,,,,
,52,-1,-541,,-214,-223,-599,,-20,-60,,,-13,-71,-71,,,-3,,,,,
,221,12,762,,743,725,1013,,691,753,,,784,806,1022,,,-4,,,,,
,15,2,4317,,3192,3904,4982,,2689,3040,,,3861,3616,3878,,,7,,,,,
,466,-14,2091,,1184,1616,2490,,849,780,,,1549,1254,1289,,,-10,,,,,
,-426,12,475,,154,343,504,,14,9,,,48,53,137,,,-11,,,,,
,-104,-11,-628,,-784,-733,-787,,-684,-763,,,-756,-742,-658,,,8,,,,,
,1738,10,-3965,,-3006,-3852,-4803,,-2508,-3014,,,-3690,-3635,-4049,,,,,,,,
,-1381,-18,-2028,,-1111,-1667,-2397,,-724,-797,,,-1688,-1349,-1580,,,6,,,,,
,26,6,-741,,-318,-416,-745,,-124,-47,,,-208,-137,-225,,,-1,,,,,
,238,-16,499,,597,724,697,,708,785,,,888,815,621,,,4,,,,,
,-248,-7,3885,,2948,3837,4788,,2610,3043,,,3807,3694,4034,,,-13,,,,,
,5115,4,2006,,1088,1501,2418,,744,771,,,1563,1373,1659,,,-12,,,,,
,-3672,-5,226,,177,48,268,,68,-37,,,361,163,120,,,17,,,,,
,-1220,14,-889,,-674,-882,-924,,-653,-806,,,-690,-809,-899,,,,,,,,
,958,-12,-3882,,-2946,-3653,-4779,,-2607,-3019,,,-4067,-3669,-3838,,,-1,,,,,
,-919,-2,-1843,,-1058,-1372,-2215,,-714,-736,,,-1557,-1272,-1387,,,9,,,,,
,-86,15,-391,,-177,-165,-313,,-56,-7,,,77,-98,-197,,,-2,,,,,
,1146,11,948,,896,983,1000,,799,858,,,812,789,826,,,-4,,,,,
,302,-29,4183,,3180,4013,5032,,2636,3092,,,3717,3623,3956,,,,,,,,
,-1887,7,2105,,1126,1691,2647,,642,824,,,1292,1289,1500,,,10,,,,,
,72,11,555,,217,316,565,,30,30,,,76,100,78,,,-13,,,,,
,530,-1,-618,,-830,-914,-848,,-727,-778,,,-874,-808,-771,,,,,,,,
,143,1,-4210,,-3169,-4147,-5081,,-2645,-3111,,,-3765,-3580,-3794,,,6,,,,,
,-53,-18,-2231,,-1252,-1740,-2700,,-787,-869,,,-1422,-1288,-1509,,,-1,,,,,
,-261,-11,-323,,-117,-147,-473,,12,-31,,,-106,-148,-376,,,-4,,,,,
,603,10,639,,695,862,771,,666,767,,,845,781,757,,,5,,,,,
,-851,-1,4025,,3169,3811,4789,,2673,3058,,,3818,3562,3801,,,5,,,,,
,620,19,2006,,1183,1507,2445,,822,836,,,1335,1223,1387,,,15,,,,,
,-362,-17,416,,181,252,500,,86,50,,,75,44,-51,,,-11,,,,,
,319,-10,-899,,-845,-737,-851,,-914,-823,,,-906,-755,-742,,,-6,,,,,
,20,-1,-4309,,-3241,-3897,-4956,,-2738,-3112,,,-3789,-3542,-3773,,,-7,,,,,
,173,-17,-1911,,-1048,-1501,-2317,,-686,-749,,,-1630,-1325,-1515,,,1,,,,,
,-1135,28,-595,,-241,-324,-491,,-31,6,,,-67,-187,-257,,,10,,,,,
,5733,-1,559,,640,771,699,,645,796,,,757,763,722,,,4,,,,,
,-3757,-26,4128,,3132,4010,4898,,2592,3047,,,3695,3662,3968,,,-13,,,,,
,271,-3,1965,,948,1483,2476,,499,722,,,1225,1371,1714,,,,,,,,
,-1192,3,450,,54,54,385,,-9,-49,,,199,186,314,,,4,,,,,
,-644,-13,-629,,-661,-965,-882,,-635,-828,,,-795,-759,-691,,,-3,,,,,
,2553,40,-4095,,-3192,-3942,-4966,,-2763,-3076,,,-3988,-3613,-3844,,,-1,,,,,
,-2043,-27,-2148,,-1266,-1597,-2427,,-678,-794,,,-1335,-1288,-1630,,,7,,,,,
,-506,-4,-512,,-154,-218,-468,,39,7,,,-54,-101,-237,,,-8,,,,,
,-149,20,664,,831,826,824,,797,825,,,912,809,717,,,2,,,,,
,-375,-31,4225,,3265,3907,5049,,2799,3078,,,3790,3609,4011,,,8,,,,,
,652,-2,1858,,1071,1492,2408,,746,740,,,1499,1343,1575,,,-3,,,,,
,-587,16,508,,262,376,369,,173,34,,,459,162,26,,,2,,,,,
,-117,-1,-282,,-431,-505,-652,,-563,-735,,,-700,-828,-762,,,-10,,,,,
,35,-13,-3838,,-2920,-3751,-4530,,-2569,-3026,,,-3982,-3654,-3707,,,-11,,,,,
,684,-3,-2305,,-1207,-1740,-2569,,-651,-798,,,-1308,-1212,-1369,,,24,,,,,
,-73,-12,-367,,-92,-144,-418,,60,46,,,-63,-192,-475,,,-14,,,,,
,-394,11,855,,712,987,896,,625,778,,,811,771,725,,,11,,,,,
,-123,6,3936,,2976,3844,4841,,2523,2974,,,3659,3631,3953,,,1,,,,,
,-230,-21,2009,,1119,1443,2462,,693,736,,,1216,1259,1556,,,-12,,,,,
,456,14,358,,10,31,421,,-28,-10,,,132,126,299,,,1,,,,,
,272,3,-562,,-616,-749,-778,,-674,-762,,,-851,-806,-875,,,4,,,,,
,-368,-1,-3989,,-3001,-3697,-4795,,-2797,-3060,,,-4039,-3630,-3960,,,6,,,,,
,-178,5,-2120,,-1180,-1519,-2360,,-876,-813,,,-1560,-1255,-1447,,,3,,,,,
,108,-2,-470,,-197,-311,-470,,33,-77,,,100,-67,-186,,,-2,,,,,
,413,-4,638,,639,654,788,,593,783,,,637,728,827,,,-1,,,,,
,-198,-1,3894,,3017,3893,4770,,2539,3083,,,3586,3550,3974,,,-11,,,,,
,202,-19,1723,,940,1502,2314,,655,772,,,1482,1262,1367,,,7,,,,,
,295,17,116,,3,189,426,,81,9,,,303,136,80,,,-4,,,,,
,-331,-28,-579,,-620,-780,-791,,-542,-809,,,-710,-720,-693,,,7,,,,,
,-120,-2,-4076,,-3069,-4045,-4992,,-2595,-3092,,,-3835,-3591,-3764,,,-7,,,,,
,592,1,-2120,,-1191,-1759,-2675,,-724,-786,,,-1393,-1278,-1416,,,7,,,,,
,81,1,-341,,-140,-238,-553,,18,-47,,,109,-140,-370,,,6,,,,,
,1042,-7,919,,950,1089,982,,738,875,,,624,781,763,,,-2,,,,,
,-477,16,4306,,3366,4070,4955,,2790,3128,,,3776,3599,3882,,,-4,,,,,
,-1045,-8,2200,,1259,1585,2621,,794,808,,,1203,1229,1471,,,-14,,,,,
,612,-1,107,,52,105,380,,-66,22,,,16,70,135,,,8,,,,,
,-261,-13,-1270,,-1075,-925,-1096,,-960,-797,,,-913,-826,-1051,,,6,,,,,
,77,13,-4465,,-3437,-3909,-4854,,-2827,-3057,,,-3728,-3543,-4055,,,-7,,,,,
,-404,-10,-1217,,-809,-1230,-1753,,-588,-714,,,-1282,-1220,-1325,,,-5,,,,,
,521,,303,,39,-118,-239,,135,-3,,,-88,-142,-51,,,-1,,,,,
,-373,10,75,,409,530,467,,576,712,,,816,800,789,,,15,,,,,
,-206,-14,3689,,3007,3838,4650,,2677,3005,,,3835,3627,3827,,,,,,,,
,405,12,2845,,1487,1838,2688,,930,821,,,1465,1258,1511,,,6,,,,,
,-553,4,649,,299,226,569,,52,33,,,31,88,338,,,-4,,,,,
,3408,-2,-1188,,-878,-1111,-1058,,-819,-873,,,-919,-808,-681,,,8,,,,,
,-3331,,-4178,,-3130,-3970,-5052,,-2606,-3078,,,-3783,-3673,-3972,,,-7,,,,,
,-242,-2,-2139,,-1373,-1629,-2477,,-933,-797,,,-1500,-1230,-1398,,,-10,,,,,
,3076,-7,-638,,-382,-314,-525,,-193,-51,,,-182,-58,-209,,,11,,,,,
,824,-11,756,,683,847,884,,577,763,,,636,786,892,,,-3,,,,,
,-3654,10,4150,,3168,3806,5081,,2663,3026,,,3803,3622,4008,,,-3,,,,,
,666,-26,1908,,1061,1599,2565,,614,783,,,1423,1295,1399,,,2,,,,,
,-101,13,414,,222,383,486,,48,9,,,355,165,-12,,,-3,,,,,
,-550,12,-419,,-464,-580,-683,,-593,-752,,,-912,-805,-708,,,8,,,,,
,504,-20,-3901,,-2927,-3807,-4692,,-2481,-3004,,,-3880,-3692,-3869,,,-7,,,,,
,410,7,-1924,,-1075,-1639,-2431,,-546,-772,,,-1292,-1324,-1549,,,-11,,,,,
,-65,-8,-392,,-72,-215,-534,,89,10,,,-43,-109,-239,,,-1,,,,,
,-36,-12,710,,753,897,745,,716,758,,,1015,872,697,,,-1,,,,,
,-872,15,4200,,3147,4040,4961,,2604,3034,,,3824,3646,3943,,,1,,,,,
,753,-11,1969,,1090,1524,2421,,690,775,,,1287,1276,1615,,,12,,,,,
,-1086,9,96,,7,-102,114,,133,-37,,,280,126,160,,,,,,,,
,659,-9,-893,,-888,-1003,-879,,-807,-823,,,-922,-775,-706,,,2,,,,,
,-236,9,-4420,,-3366,-4045,-5028,,-2770,-3090,,,-3768,-3549,-3954,,,-7,,,,,
,377,-11,-2159,,-1234,-1616,-2532,,-633,-802,,,-1285,-1311,-1640,,,-8,,,,,
,1540,-14,-178,,-15,-57,-164,,48,35,,,-198,-167,-165,,,8,,,,,
,-1848,19,592,,720,750,744,,680,783,,,758,824,930,,,-2,,,,,
,-85,-3,4085,,3193,3922,4929,,2596,3098,,,3625,3635,3965,,,-1,,,,,
,295,-1,2297,,1260,1825,2641,,668,846,,,1368,1229,1384,,,2,,,,,
,-71,-20,442,,242,316,507,,41,40,,,185,126,268,,,,,,,,
,1826,-1,-503,,-490,-756,-746,,-590,-735,,,-1034,-854,-754,,,-5,,,,,
,-1764,3,-4048,,-3166,-3962,-5001,,-2583,-3064,,,-3552,-3660,-4213,,,6,,,,,
,2195,-3,-2185,,-1282,-1667,-2407,,-931,-811,,,-1609,-1221,-1330,,,5,,,,,
,-2424,12,-398,,-217,-156,-543,,-188,-4,,,-249,-40,-42,,,-3,,,,,
,496,-10,828,,704,912,851,,634,763,,,921,829,737,,,-7,,,,,
,-63,-1,4062,,3132,3856,4881,,2610,3019,,,3874,3617,3848,,,2,,,,,
,-239,1,2132,,1227,1498,2470,,731,758,,,1353,1243,1508,,,5,,,,,
,201,-3,467,,273,310,503,,98,52,,,75,72,130,,,10,,,,,
,4150,3,-712,,-608,-676,-877,,-584,-776,,,-830,-818,-858,,,-9,,,,,
,-3408,2,-3850,,-2908,-3673,-4796,,-2470,-2956,,,-3627,-3590,-4001,,,7,,,,,
,-1525,-3,-2016,,-1062,-1544,-2271,,-640,-726,,,-1384,-1296,-1500,,,-3,,,,,
,185,2,-669,,-297,-419,-421,,-30,-7,,,-319,-150,42,,,-1,,,,,
,-246,1,585,,632,757,705,,752,823,,,817,797,716,,,-2,,,,,
,372,-3,4026,,3042,3966,4831,,2470,3025,,,3730,3624,3918,,,-5,,,,,
,2923,,2045,,1028,1649,2580,,555,762,,,1399,1334,1744,,,-4,,,,,
,-645,,400,,123,200,544,,48,49,,,195,72,63,,,15,,,,,
,-2205,5,-816,,-762,-978,-870,,-653,-791,,,-1033,-846,-784,,,4,,,,,
,-265,-7,-4302,,-3258,-4067,-5043,,-2632,-3111,,,-3666,-3619,-3966,,,-12,,,,,
,1345,-17,-2165,,-1305,-1599,-2618,,-868,-822,,,-1313,-1288,-1605,,,-5,,,,,
,-280,,-177,,-50,-62,-338,,-59,15,,,-378,-105,-145,,,-7,,,,,
,-893,17,799,,899,858,821,,809,823,,,832,795,729,,,7,,,,,
,2331,-14,3934,,3132,3745,4802,,2669,3039,,,3750,3606,3942,,,3,,,,,
,-2251,-3,2303,,1216,1591,2451,,749,778,,,1352,1289,1462,,,1,,,,,
,699,17,506,,153,280,331,,-38,-27,,,29,84,132,,,2,,,,,
,-99,,-588,,-662,-691,-743,,-692,-844,,,-724,-736,-761,,,-9,,,,,
,6,-17,-3980,,-3038,-3889,-4671,,-2564,-3071,,,-3672,-3563,-3889,,,-7,,,,,
,-396,18,-2092,,-1083,-1667,-2444,,-494,-755,,,-1158,-1252,-1369,,,6,,,,,
,122,-18,-517,,-201,-311,-543,,-7,18,,,-98,-136,-160,,,7,,,,,
,-301,-7,709,,621,889,784,,469,799,,,596,732,641,,,6,,,,,
,611,18,4168,,3112,4048,4908,,2501,3053,,,3622,3579,3897,,,9,,,,,
,-680,-1,2027,,1084,1522,2503,,671,760,,,1396,1287,1617,,,-8,,,,,
,578,-35,191,,101,20,332,,82,15,,,138,135,195,,,-5,,,,,
,-189,25,-873,,-807,-887,-863,,-791,-755,,,-988,-831,-874,,,,,,,,
,481,,-4093,,-3100,-3815,-4852,,-2672,-3016,,,-3700,-3595,-3920,,,-17,,,,,
,-507,6,-2103,,-1217,-1647,-2498,,-761,-818,,,-1426,-1235,-1239,,,4,,,,,
,-941,-39,-481,,-211,-305,-521,,30,-77,,,-7,7,-3,,,6,,,,,
,-127,25,590,,778,689,782,,959,779,,,1115,735,567,,,12,,,,,
,255,8,3837,,3058,3743,4783,,2552,3028,,,3539,3632,3919,,,-3,,,,,
,-80,,2036,,966,1655,2517,,523,774,,,1157,1234,1463,,,-9,,,,,
,-68,-43,429,,184,340,526,,-8,5,,,149,48,62,,,9,,,,,
,57,-1,-487,,-473,-670,-739,,-576,-680,,,-713,-813,-935,,,10,,,,,
,-136,-1,-4001,,-2983,-3940,-4968,,-2556,-3025,,,-3806,-3625,-3854,,,-10,,,,,
,21,21,-2274,,-1247,-1736,-2651,,-655,-851,,,-1263,-1200,-1503,,,6,,,,,
,133,-17,-493,,-200,-226,-704,,42,-70,,,10,-46,-308,,,-10,,,,,
,365,34,809,,705,879,843,,595,781,,,707,805,845,,,-6,,,,,
,-522,-35,3949,,3028,3742,4886,,2567,3000,,,3743,3639,4042,,,13,,,,,
,131,-1,2055,,1096,1452,2460,,699,764,,,1397,1248,1635,,,-5,,,,,
,-149,,517,,286,334,509,,66,81,,,113,30,19,,,3,,,,,
,-7,,-745,,-707,-763,-723,,-624,-725,,,-613,-788,-932,,,,,,,,
,99,5,-3970,,-3048,-3793,-4956,,-2491,-3046,,,-3763,-3657,-3983,,,-12,,,,,
,-85,-3,-1887,,-919,-1448,-2361,,-576,-745,,,-1608,-1348,-1528,,,-3,,,,,
,39,-1,-566,,-176,-329,-498,,-74,-20,,,-233,-179,-127,,,-2,,,,,
,230,,516,,559,751,701,,514,747,,,701,764,803,,,18,,,,,
,8,6,4085,,3012,3980,4972,,2408,3012,,,3495,3588,3980,,,1,,,,100,
,1727,-7,2228,,1125,1700,2598,,558,816,,,1290,1276,1500,,,-2,,,,-100,
,-1269,6,417,,218,234,552,,49,28,,,198,114,240,,,-5,,,,,
,383,-5,-628,,-703,-914,-736,,-589,-777,,,-724,-781,-623,,,-3,,,,,
,-236,-17,-4161,,-3117,-3977,-4964,,-2545,-3036,,,-3702,-3554,-3832,,,3,,,,,
,3785,-13,-1916,,-1017,-1404,-2442,,-610,-742,,,-1359,-1224,-1601,,,4,,,,,
,-3723,17,-268,,-63,-56,-411,,41,11,,,-79,-91,-289,,,6,,,,,
,-180,-14,497,,657,721,678,,684,756,,,832,795,859,,,-13,,,,,
,670,-6,3885,,2977,3657,4849,,2583,3025,,,3751,3599,3966,,,-3,,,,,
,491,2,1910,,969,1419,2434,,618,755,,,1353,1232,1424,,,11,,,,,
,-990,-1,196,,-42,113,248,,-115,-72,,,312,108,-39,,,,,,,,
,-363,2,-528,,-545,-743,-813,,-592,-792,,,-566,-734,-883,,,-2,,,,,
,2509,16,-3915,,-2893,-3741,-4751,,-2513,-3032,,,-3848,-3571,-3727,,,-3,,,,,
,-315,-7,-2050,,-1122,-1688,-2432,,-686,-836,,,-1397,-1246,-1268,,,7,,,,,
,-1118,-27,-372,,-125,-311,-444,,-14,-22,,,-192,-157,-187,,,-8,,,,,
,-1077,15,634,,675,839,626,,676,790,,,869,783,680,,,2,,,,,
,320,2,4238,,3175,4042,4980,,2555,3055,,,3611,3529,3923,,,-4,,,,,
,1595,3,2075,,1095,1563,2740,,624,785,,,1306,1240,1586,,,-2,,,,,
,-1683,-9,313,,200,182,496,,-25,62,,,-52,83,233,,,4,,,,,
,-406,5,-586,,-692,-741,-900,,-693,-754,,,-874,-814,-940,,,8,,,,,
,690,3,-4004,,-3117,-3751,-4958,,-2633,-3077,,,-3722,-3645,-3992,,,3,,,,,
,555,-12,-1873,,-986,-1368,-2274,,-605,-741,,,-1501,-1338,-1504,,,,,,,,
,-1011,10,-482,,-170,-256,-480,,6,-34,,,-51,-97,-142,,,-6,,,,,
,-256,-28,719,,798,763,776,,780,800,,,1019,741,710,,,-2,,,,,
,787,27,4365,,3318,4071,5000,,2634,3123,,,3484,3508,3861,,,-8,,,,,
,104,-8,1926,,997,1491,2355,,548,728,,,1239,1344,1674,,,-6,,,,,
,-822,-22,299,,-43,155,462,,-96,-58,,,270,233,326,,,-1,,,,,
,688,-2,-594,,-613,-769,-721,,-571,-777,,,-549,-771,-1010,,,7,,,,,
,-226,2,-4260,,-3150,-4015,-4954,,-2666,-2998,,,-3983,-3641,-3816,,,3,,,,,
,-730,9,-2190,,-1194,-1632,-2505,,-767,-776,,,-1497,-1298,-1430,,,-11,,,,,
,109,10,-342,,-141,-99,-553,,-42,17,,,-40,-53,-186,,,9,,,,,
,164,-1,494,,611,771,781,,634,759,,,808,820,790,,,2,,,,,
,-153,-19,3883,,3080,3730,4852,,2665,3004,,,3897,3650,4017,,,4,,,,,
,153,5,2252,,1274,1623,2650,,865,857,,,1542,1266,1429,,,3,,,,,
,76,-1,593,,313,411,638,,85,74,,,142,58,27,,,6,,,,,
,138,12,-552,,-530,-620,-810,,-670,-730,,,-909,-830,-885,,,-9,,,,,
,53,,-4044,,-3042,-3849,-5054,,-2597,-3045,,,-3671,-3558,-3977,,,,,,,,
,-129,-28,-1915,,-1106,-1653,-2306,,-725,-801,,,-1559,-1291,-1407,,,3,,,,,
,1333,28,-465,,-185,-346,-455,,50,-23,,,-52,-177,-160,,,6,,,,,
,-1111,-27,618,,701,823,800,,687,814,,,635,777,925,,,3,,,,,
,334,11,4099,,3144,4030,4901,,2656,3101,,,3676,3584,3895,,,1,,,,,
,-464,,2311,,1298,1804,2715,,815,845,,,1497,1285,1392,,,-2,,,,,
,-101,-7,612,,260,266,589,,104,34,,,298,193,175,,,-7,,,,,
,-30,-11,-657,,-693,-874,-814,,-638,-807,,,-648,-777,-828,,,-14,,,,,
,326,13,-4168,,-3113,-3927,-4976,,-2761,-3097,,,-4064,-3623,-3836,,,-2,,,,,
,221,-12,-2202,,-1216,-1552,-2631,,-796,-828,,,-1423,-1283,-1550,,,20,,,,,
,121,10,-481,,-225,-213,-495,,-79,-20,,,-42,-153,-297,,,6,,,,,
,-581,-10,543,,630,648,798,,567,772,,,747,779,854,,,-6,,,,,
,35,10,3915,,2935,3626,4725,,2570,3002,,,3678,3617,3993,,,3,,,,,
,228,3,1995,,1070,1452,2257,,760,744,,,1373,1247,1390,,,-7,,,,,
,658,-16,481,,195,322,517,,83,41,,,259,131,-5,,,-1,,,,,
,-532,3,-727,,-863,-789,-806,,-768,-839,,,-809,-767,-749,,,-5,,,,,
,-261,11,-4218,,-3277,-4022,-4883,,-2750,-3108,,,-3895,-3620,-3812,,,4,,,,,
,-186,1,-2116,,-1194,-1729,-2472,,-845,-794,,,-1578,-1286,-1392,,,-4,,,,,
,547,-7,-379,,-187,-122,-453,,-199,27,,,-263,-92,4,,,4,,,,,
,1039,,635,,651,884,895,,651,809,,,864,763,697,,,-1,,,,,
,-925,14,4025,,3090,3951,4899,,2579,3074,,,3807,3626,3864,,,-3,,,,,
,-513,-13,2164,,1274,1645,2485,,851,807,,,1448,1257,1509,,,2,,,,,
,90,-2,380,,218,150,412,,123,-12,,,135,150,264,,,4,,,,,
,-311,-14,-707,,-626,-809,-808,,-572,-821,,,-724,-816,-843,,,-6,,,,,
,566,26,-3914,,-2936,-3688,-4867,,-2533,-3040,,,-3944,-3736,-4129,,,-5,,,,,
,1026,-32,-1936,,-1041,-1480,-2532,,-665,-749,,,-1440,-1307,-1686,,,11,,,,,
,-1570,6,-333,,-128,-226,-292,,-46,-66,,,-173,-40,13,,,-4,,,,,
,775,-5,767,,775,754,913,,834,758,,,977,826,876,,,-6,,,,,
,-730,20,4031,,3056,3849,4745,,2659,3020,,,3978,3632,3735,,,-3,,,,,
,716,-17,2074,,1138,1692,2510,,590,783,,,1223,1270,1488,,,15,,,,,
,-223,1,417,,253,367,451,,35,17,,,100,141,134,,,-5,,,,,
,233,17,-569,,-494,-691,-693,,-553,-751,,,-741,-827,-887,,,12,,,,,
,-579,-19,-4036,,-3096,-3946,-4860,,-2631,-3009,,,-3764,-3613,-3805,,,,,,,,
,91,1,-2253,,-1331,-1737,-2639,,-801,-813,,,-1429,-1273,-1394,,,,,,,,
,205,-2,-376,,-322,-171,-470,,-244,-33,,,-424,-117,-112,,,-13,,,,,
,-311,1,775,,767,921,886,,734,799,,,844,825,722,,,-1,,,,,
,365,2,4002,,3155,3855,4906,,2750,3072,,,3904,3639,3975,,,4,,,,,
,-745,-3,2063,,1169,1500,2525,,831,789,,,1602,1270,1616,,,6,,,,,
,614,3,608,,303,325,519,,138,82,,,168,126,207,,,-8,,,,,
,-210,-2,-778,,-694,-635,-784,,-768,-753,,,-827,-829,-860,,,-3,,,,,
,4321,2,-4171,,-3196,-3843,-4746,,-2817,-3041,,,-4017,-3598,-3855,,,1,,,,,
,-3370,-3,-2048,,-1241,-1677,-2376,,-801,-850,,,-1519,-1253,-1390,,,11,,,,,
,-281,-2,-428,,-178,-329,-523,,-50,-44,,,-13,-124,-252,,,-11,,,,,
,-617,31,703,,709,785,647,,692,830,,,793,731,567,,,-1,,,,,
,-272,-30,3950,,3104,3969,4820,,2632,3082,,,3570,3549,3847,,,,,,,,
,173,,2074,,1117,1682,2483,,801,790,,,1554,1270,1463,,,-3,,,,,
,-554,-28,347,,138,220,523,,-35,18,,,3,61,225,,,10,,,,,
,168,-3,-959,,-802,-1043,-905,,-728,-806,,,-855,-806,-794,,,4,,,,,
,185,6,-4252,,-3266,-4037,-5016,,-2749,-3091,,,-3812,-3613,-3956,,,-5,,,,,
,-368,26,-2081,,-1256,-1557,-2550,,-808,-826,,,-1407,-1242,-1476,,,-5,,,,,
,146,-26,-235,,-82,-128,-342,,-9,-32,,,-162,-143,-237,,,-1,,,,,
,2112,,645,,692,703,693,,714,792,,,936,870,810,,,1,,,,,
,-1982,-3,3963,,2949,3627,4677,,2495,3008,,,3727,3635,4063,,,-3,,,,,
,2171,,2029,,1064,1432,2362,,715,777,,,1383,1273,1549,,,4,,,,,
,-2069,21,551,,237,330,452,,136,27,,,289,140,107,,,8,,,,,
,297,-39,-483,,-439,-585,-546,,-552,-749,,,-813,-773,-861,,,-1,,,,,
,-374,21,-4051,,-2927,-3825,-4803,,-2487,-3031,,,-3710,-3627,-3964,,,-1,,,,,
,-427,-16,-1873,,-946,-1570,-2412,,-467,-755,,,-1268,-1350,-1622,,,-5,,,,,
,2222,,-376,,-154,-224,-412,,-87,-7,,,-247,-123,-142,,,-7,,,,,
,-1390,13,626,,591,874,762,,503,803,,,792,826,771,,,10,,,,,
,-619,-3,4015,,3053,3946,4886,,2591,3072,,,3816,3635,3935,,,2,,,,,
,850,,2121,,1175,1625,2559,,715,807,,,1289,1310,1680,,,-5,,,,,
,-984,2,317,,230,71,561,,98,21,,,103,77,224,,,-2,,,,,
,1531,-8,-918,,-911,-935,-866,,-772,-827,,,-775,-832,-808,,,-4,,,,,
,-701,-4,-4123,,-3160,-3847,-5100,,-2607,-3104,,,-3700,-3558,-3947,,,6,,,,,
,-106,-19,-1998,,-1104,-1495,-2500,,-761,-799,,,-1587,-1263,-1512,,,8,,,,,
,410,-3,-399,,-123,-182,-388,,-18,26,,,-123,-64,-172,,,-6,,,,,
,-196,,724,,790,807,843,,810,839,,,821,717,826,,,1,,,,,
,-607,7,4133,,3131,3855,4799,,2574,3040,,,3560,3467,3801,,,1,,,,,
,168,14,1960,,1020,1561,2516,,649,751,,,1449,1280,1353,,,-5,,,,,
,-20,-17,515,,145,264,492,,58,6,,,400,183,108,,,-1,,,,,
,-86,18,-530,,-637,-769,-702,,-766,-792,,,-926,-812,-724,,,-5,,,,,
,754,-19,-4291,,-3271,-4113,-4999,,-2799,-3077,,,-3877,-3601,-3699,,,-7,,,,,
,192,20,-2051,,-1085,-1542,-2439,,-628,-758,,,-1443,-1322,-1464,,,-1,,,,,
,-914,-32,-388,,-72,-60,-402,,80,-10,,,-56,-118,-289,,,12,,,,,
,555,9,428,,594,791,680,,604,760,,,754,775,712,,,-12,,,,,
,-238,4,4173,,3157,3884,4942,,2618,3044,,,3633,3601,3961,,,10,,,,,
,504,-13,1955,,1066,1410,2448,,613,749,,,1384,1325,1601,,,3,,,,,
,-682,13,312,,104,78,350,,57,-13,,,185,138,103,,,3,,,,,
,301,-13,-615,,-678,-718,-846,,-683,-762,,,-934,-814,-943,,,2,,,,,
,1650,13,-4169,,-3077,-3841,-4940,,-2534,-3019,,,-3493,-3558,-4101,,,-4,,,,,
,-1674,-8,-1826,,-1152,-1485,-2283,,-728,-715,,,-1490,-1321,-1537,,,,,,,,
,116,-5,-374,,-136,-299,-454,,-78,6,,,-268,-129,-127,,,4,,,,,
,312,-14,526,,726,684,557,,747,763,,,1027,852,797,,,-1,,,,,
,413,26,4108,,3150,3953,4783,,2646,3019,,,3827,3589,3938,,,,,,,,
,-1049,-12,2277,,1252,1702,2918,,756,794,,,1096,1199,1640,,,7,,,,,
,196,-18,426,,190,253,507,,105,69,,,46,140,402,,,-9,,,,,
,-78,18,-672,,-651,-965,-903,,-564,-773,,,-664,-782,-761,,,-1,,,,,
,27,-17,-3797,,-2897,-3805,-4819,,-2496,-2991,,,-3592,-3619,-4177,,,-9,,,,,
,-344,,-2016,,-1189,-1532,-2475,,-803,-801,,,-1462,-1288,-1579,,,-1,,,,,
,123,3,-361,,-260,-161,-403,,-160,-88,,,-157,-82,-99,,,17,,,,,
,676,14,591,,552,726,780,,580,693,,,865,838,987,,,2,,,,,
,-680,-18,4097,,3126,3734,4904,,2679,3049,,,3739,3561,3753,,,-5,,,,,
,-503,-3,2133,,1253,1526,2435,,776,764,,,1398,1270,1479,,,-11,,,,,
,1087,,96,,-30,195,449,,-55,-64,,,188,223,294,,,-5,,,,,
,2,4,-696,,-814,-802,-805,,-762,-816,,,-834,-768,-775,,,10,,,,,
,-574,,-4004,,-3037,-3893,-4930,,-2597,-3016,,,-3844,-3623,-3904,,,7,,,,,
,276,-4,-2070,,-1123,-1706,-2545,,-664,-766,,,-1281,-1278,-1573,,,4,,,,,
,1581,-9,-340,,-171,-230,-446,,-65,10,,,-144,-123,-212,,,-4,,,,,
,-1538,-9,412,,555,798,712,,550,746,,,652,727,688,,,-8,,,,,
,798,21,3856,,2987,3871,4829,,2516,2997,,,3708,3579,3940,,,2,,,,,
,26,,2090,,1134,1591,2507,,748,808,,,1554,1313,1551,,,7,,,,,
,67,-14,514,,296,240,536,,137,108,,,-2,125,119,,,-3,,,,,
,-971,2,-717,,-727,-827,-856,,-636,-773,,,-819,-783,-838,,,,,,,,
,69,-1,-4012,,-3041,-3720,-4908,,-2598,-3040,,,-3710,-3602,-3939,,,2,,,,,
,-656,-17,-1970,,-1052,-1478,-2339,,-734,-733,,,-1553,-1254,-1383,,,-2,,,,,
,2125,,-269,,10,-159,-336,,87,-14,,,-32,-145,-202,,,-1,,,,,
,-1916,35,768,,765,770,855,,671,791,,,896,828,946,,,-4,,,,,
,-113,-19,4111,,3180,3920,4831,,2623,3054,,,3851,3609,3962,,,7,,,,,
,131,-17,2017,,1081,1669,2463,,679,776,,,1347,1295,1549,,,3,,,,,
,209,-3,616,,252,370,669,,84,46,,,99,129,162,,,-9,,,,,
,-753,22,-592,,-643,-820,-837,,-608,-826,,,-833,-764,-753,,,-1,,,,,
,1116,-22,-4123,,-3094,-4051,-5033,,-2531,-3055,,,-3725,-3604,-3847,,,2,,,,,
,87,21,-1903,,-1024,-1558,-2460,,-520,-746,,,-1255,-1348,-1668,,,4,,,,,
,-824,-32,-438,,-135,-200,-547,,-86,-36,,,-225,-141,-146,,,-8,,,,,
,603,11,746,,800,975,927,,649,812,,,857,806,827,,,13,,,,,
,-318,3,4152,,3118,3980,5053,,2677,3064,,,3776,3595,3850,,,9,,,,,
,196,1,2155,,1201,1508,2489,,687,781,,,1212,1244,1503,,,-4,,,,,
,1735,3,317,,41,35,192,,-47,-60,,,210,176,144,,,-14,,,,,
,-2454,-16,-1144,,-955,-999,-1161,,-752,-850,,,-744,-751,-924,,,-3,,,,,
,-265,-1,-4481,,-3328,-3946,-5071,,-2718,-3086,,,-3919,-3607,-3956,,,11,,,,,
,-75,13,-1654,,-1003,-1416,-2090,,-621,-777,,,-1423,-1300,-1380,,,-7,,,,,
,-24,-12,517,,164,8,61,,78,14,,,-17,-99,-2,,,-6,,,,,
,185,14,314,,553,525,417,,693,749,,,938,819,674,,,6,,,,,
,-161,-14,3428,,2915,3800,4620,,2530,3054,,,3735,3566,3759,,,-3,,,,,
,69,9,2165,,1231,1780,2705,,707,792,,,1353,1199,1407,,,4,,,,,
,102,-27,331,,127,149,431,,11,-23,,,142,152,269,,,4,,,,,
,25,-3,-819,,-718,-959,-865,,-675,-774,,,-952,-728,-721,,,-3,,,,,
,-207,1,-4326,,-3243,-4064,-5222,,-2608,-3078,,,-3688,-3582,-3993,,,-3,,,,,
,57,20,-2176,,-1225,-1594,-2759,,-721,-800,,,-1468,-1308,-1615,,,-2,,,,,
,1165,-17,-204,,-87,-163,-223,,77,18,,,-1,-177,-255,,,-2,,,,,
,541,11,664,,745,785,930,,769,825,,,759,847,932,,,1,,,,,
,-1778,28,3920,,3021,3801,4938,,2535,3070,,,3505,3566,4052,,,3,,,,,
,234,-42,2110,,1119,1580,2467,,595,842,,,1379,1177,1363,,,-1,,,,,
,1299,-9,403,,75,316,578,,-119,35,,,-8,78,172,,,-1,,,,,
,56,19,-579,,-626,-597,-609,,-709,-728,,,-882,-787,-866,,,7,,,,,
,-1355,-9,-4058,,-3113,-3917,-4912,,-2634,-3082,,,-3580,-3567,-3978,,,1,,,,,
,322,-1,-2038,,-1116,-1746,-2612,,-588,-812,,,-1202,-1237,-1502,,,-4,,,,100,
,866,-8,-493,,-165,-248,-525,,17,-1,,,-313,-136,-91,,,-13,,,,-100,
,-1036,-1,517,,591,775,687,,536,727,,,670,813,856,,,10,,,,,
,595,10,4046,,3066,3846,4871,,2617,3012,,,3866,3589,3850,,,12,,,,,
,282,-9,2220,,1205,1633,2707,,693,796,,,1312,1251,1552,,,-8,,,,,
,953,-1,427,,152,76,478,,51,-5,,,318,137,132,,,-4,,,,,
,-1709,7,-899,,-783,-914,-977,,-656,-780,,,-709,-733,-810,,,2,,,,,
,-265,-8,-3945,,-3049,-3785,-4947,,-2597,-3047,,,-3897,-3606,-3976,,,-15,,,,,
,694,10,-2015,,-1255,-1587,-2529,,-856,-833,,,-1480,-1226,-1361,,,12,,,,,
,-393,-9,-510,,-253,-295,-478,,-106,-68,,,-207,-89,25,,,4,,,,,
,157,-21,709,,753,695,766,,796,756,,,965,723,723,,,4,,,,,
,626,22,4116,,3182,3920,4883,,2573,3028,,,3550,3614,4035,,,-5,,,,,
,-589,-1,2189,,1182,1785,2500,,756,815,,,1417,1331,1368,,,-3,,,,,
,754,11,445,,276,359,437,,99,69,,,256,111,-152,,,-2,,,,,
,568,-32,-892,,-805,-923,-995,,-737,-775,,,-733,-731,-708,,,7,,,,,
,-1137,1,-4065,,-3032,-4003,-4795,,-2488,-2997,,,-3702,-3639,-3900,,,6,,,,,
,146,5,-2083,,-1176,-1593,-2348,,-638,-771,,,-1367,-1308,-1504,,,-6,,,,,
,399,-6,-382,,-175,-109,-435,,-141,-32,,,-251,-183,-176,,,-9,,,,,
,-456,1,760,,730,939,805,,628,846,,,678,763,759,,,6,,,,,
,389,-14,3892,,3028,3826,4832,,2621,3102,,,3763,3615,3998,,,2,,,,,
,-321,14,1868,,1155,1393,2389,,799,785,,,1416,1210,1455,,,-3,,,,,
,527,-13,536,,277,235,376,,133,,,,113,121,147,,,-1,,,,,
,-1112,18,-663,,-729,-742,-777,,-820,-827,,,-906,-779,-802,,,,,,,,
,2352,-6,-4095,,-3138,-3797,-4814,,-2697,-3053,,,-3797,-3560,-3906,,,1,,,,,
,-2238,-13,-2101,,-1295,-1645,-2420,,-667,-840,,,-1309,-1227,-1394,,,-8,,,,,
,-424,1,-714,,-331,-495,-463,,-155,-78,,,-63,-98,38,,,,,,,,
,595,13,628,,718,772,795,,681,784,,,777,758,748,,,20,,,,,
,3916,-13,4319,,3303,4175,4995,,2673,3095,,,3767,3597,3728,,,3,,,,,
,-3465,,2418,,1353,1874,2817,,750,886,,,1204,1223,1426,,,2,,,,,
,-511,,287,,56,166,409,,-38,8,,,211,168,177,,,,,,,,
,334,,-763,,-709,-993,-1007,,-654,-838,,,-760,-807,-753,,,-10,,,,,
,494,-9,-4041,,-3052,-3944,-4991,,-2532,-3080,,,-3821,-3626,-3849,,,-9,,,,,
,1218,-8,-1926,,-1089,-1495,-2476,,-634,-804,,,-1426,-1298,-1714,,,-8,,,,,
,-2178,52,-333,,-137,-117,-424,,-9,-47,,,35,-32,-234,,,2,,,,,
,348,-54,757,,765,815,830,,724,772,,,978,866,860,,,10,,,,,
,-21,19,4056,,3084,3773,4869,,2599,3071,,,3608,3579,4122,,,-2,,,,,
,431,,2087,,1034,1447,2397,,680,787,,,1391,1275,1515,,,5,,,,,
,-42,-17,388,,162,312,396,,24,29,,,188,60,-116,,,-12,,,,,
,1238,-15,-609,,-545,-573,-848,,-661,-752,,,-735,-778,-840,,,6,,,,,
,-1368,-3,-3904,,-2870,-3754,-4680,,-2519,-2975,,,-3745,-3649,-3834,,,-7,,,,,
,-545,5,-2017,,-1162,-1612,-2376,,-652,-730,,,-1502,-1324,-1367,,,3,,,,,
,-192,,-385,,-155,-199,-471,,-30,,,,-208,-131,-158,,,-3,,,,,
,1362,,647,,667,884,729,,638,769,,,793,841,736,,,15,,,,,
,-811,,4027,,3061,3910,4774,,2570,3011,,,3897,3634,3904,,,-8,,,,,
,429,11,2209,,1189,1631,2593,,638,771,,,1162,1240,1640,,,5,,,,,
,-166,-11,309,,100,71,481,,9,-53,,,64,107,331,,,,,,,,
,119,13,-791,,-717,-898,-926,,-543,-784,,,-664,-795,-885,,,-2,,,,,
,-78,,-4133,,-3178,-3880,-5031,,-2595,-3067,,,-3774,-3568,-3843,,,3,,,,,
,-722,-15,-2082,,-1188,-1534,-2481,,-742,-798,,,-1376,-1273,-1542,,,4,,,,,
,470,2,-430,,-229,-277,-471,,-102,-56,,,29,-141,-430,,,-7,,,,,
,1997,-22,552,,518,585,725,,523,727,,,755,762,875,,,-6,,,,,
,-2521,,4043,,3032,3882,4915,,2484,3017,,,3474,3577,4004,,,-2,,,,,
,418,17,2061,,1177,1640,2360,,695,762,,,1460,1341,1425,,,12,,,,,
,-68,,298,,179,258,347,,64,10,,,210,159,98,,,2,,,,,
,141,5,-751,,-842,-858,-765,,-737,-755,,,-870,-802,-708,,,-12,,,,,
,1002,,-4197,,-3138,-4062,-4883,,-2580,-3015,,,-3768,-3678,-3935,,,-6,,,,,
,-1633,-31,-2237,,-1253,-1668,-2553,,-759,-768,,,-1513,-1324,-1537,,,13,,,,,
,251,9,-355,,-141,-99,-419,,-66,-1,,,-269,-99,-99,,,-3,,,,,
,-105,,747,,757,911,883,,695,770,,,928,832,876,,,2,,,,,
,186,-13,4003,,3204,3897,4801,,2722,3071,,,3862,3644,3970,,,-4,,,,,
,211,4,2182,,1267,1525,2631,,741,835,,,1311,1283,1611,,,2,,,,,
,152,9,510,,218,267,528,,20,69,,,134,142,185,,,5,,,,,
,-398,-9,-729,,-677,-659,-806,,-676,-785,,,-728,-777,-941,,,9,,,,,
,150,12,-3920,,-3031,-3739,-4806,,-2633,-3071,,,-3774,-3636,-3910,,,-15,,,,,
,1208,-12,-1979,,-1140,-1584,-2433,,-756,-821,,,-1454,-1285,-1331,,,-2,,,,,
,946,-8,-456,,-127,-335,-545,,82,-20,,,22,-147,-237,,,16,,,,,
,-1974,20,744,,740,824,745,,775,789,,,861,745,662,,,-8,,,,,
,112,-31,4193,,3308,4073,4919,,2719,3075,,,3599,3562,3783,,,4,,,,,
,405,18,1977,,1079,1575,2373,,634,761,,,1328,1245,1473,,,-8,,,,,
,-948,-17,253,,-163,99,539,,-246,-10,,,40,165,341,,,-1,,,,,
,212,18,-725,,-642,-858,-789,,-746,-759,,,-1037,-804,-663,,,5,,,,,
,19,-21,-4519,,-3188,-4070,-5210,,-2546,-3075,,,-3650,-3616,-4008,,,-2,,,,,
,358,17,-2291,,-1285,-1624,-2671,,-746,-846,,,-1251,-1267,-1615,,,-6,,,,,
,908,-15,78,,1,143,-57,,-71,9,,,-382,-159,-110,,,1,,,,,
,-1493,19,1442,,976,1055,1164,,735,822,,,826,763,796,,,-3,,,,,
,272,,3681,,2860,3552,4596,,2495,2979,,,3851,3614,3949,,,-3,,,,,
,187,-21,981,,643,1124,1983,,612,747,,,1658,1355,1471,,,3,,,,,
,-109,-11,699,,308,520,717,,70,94,,,-184,-21,15,,,12,,,,,
,534,11,-161,,-532,-497,-527,,-704,-794,,,-1044,-823,-791,,,-5,,,,,
,901,,-4203,,-3261,-4011,-4855,,-2679,-3135,,,-3555,-3502,-3785,,,-3,,,,,
,-1963,7,-2294,,-1315,-1810,-2569,,-787,-885,,,-1465,-1249,-1289,,,,,,,,
,2268,5,-351,,-22,-160,-479,,72,40,,,-176,-192,-361,,,9,,,,,
,-1886,-8,870,,782,952,870,,707,854,,,759,746,681,,,-1,,,,,
,460,-4,3875,,2973,3893,4834,,2530,3040,,,3778,3681,4017,,,5,,,,,
,-603,,1931,,1118,1540,2544,,681,820,,,1458,1309,1543,,,2,,,,,
,372,-9,692,,500,350,576,,417,143,,,299,81,15,,,-3,,,,,
,-31,9,-671,,-566,-765,-800,,-506,-733,,,-701,-816,-851,,,-7,,,,,
,-130,-9,-4184,,-3296,-3975,-5027,,-2779,-3142,,,-3677,-3590,-3881,,,-4,,,,,
,582,,-2003,,-1261,-1567,-2404,,-869,-835,,,-1537,-1275,-1288,,,-4,,,,,
,-216,,-490,,-260,-315,-552,,-48,-39,,,-99,-21,27,,,5,,,,,
,87,-14,690,,705,717,746,,704,744,,,943,834,565,,,14,,,,,
,-800,12,4140,,3222,3943,5017,,2534,3043,,,3451,3590,3948,,,5,,,,,
,1785,5,2171,,1273,1729,2502,,740,805,,,1341,1250,1404,,,-18,,,,,
,-1786,-12,450,,132,282,470,,-24,1,,,168,127,114,,,-5,,,,,
,476,-10,-524,,-602,-746,-674,,-699,-766,,,-797,-775,-730,,,-2,,,,,
,-545,-1,-4106,,-3151,-4080,-4884,,-2570,-3053,,,-3603,-3570,-3844,,,-1,,,,,
,288,2,-2253,,-1276,-1823,-2665,,-673,-872,,,-1385,-1290,-1477,,,-7,,,,,
,-476,-3,-375,,-148,-150,-547,,-4,-65,,,-365,-212,-338,,,16,,,,,
,417,-35,809,,727,912,797,,703,783,,,875,812,651,,,4,,,,,
,3585,37,4090,,3141,3848,4905,,2592,3054,,,3650,3597,4080,,,-3,,,,,
,-2595,-35,1961,,1145,1412,2407,,759,814,,,1473,1249,1455,,,3,,,,,
,-637,,98,,17,73,382,,-122,-16,,,161,150,72,,,-8,,,,,
,875,37,-634,,-739,-698,-806,,-870,-760,,,-1004,-783,-789,,,,,,,,
,-1175,-36,-4006,,-3106,-3784,-4773,,-2655,-2988,,,-3809,-3614,-3849,,,8,,,,,
,-102,-1,-2307,,-1241,-1681,-2561,,-652,-781,,,-1268,-1238,-1399,,,-13,,,,,
,-136,,-472,,-150,-316,-484,,21,9,,,-196,-83,-17,,,4,,,,,
,146,-5,798,,831,849,662,,842,779,,,900,751,644,,,1,,,,,
,-127,-10,4246,,3219,3995,4849,,2664,3114,,,3766,3607,3758,,,,,,,,
,550,25,2152,,1122,1714,2731,,535,831,,,1109,1270,1669,,,-4,,,,,
,-220,-28,491,,286,368,615,,118,84,,,138,104,263,,,5,,,,,
,112,-2,-671,,-547,-865,-792,,-425,-786,,,-617,-838,-767,,,4,,,,,
,186,-2,-3935,,-2992,-3858,-4899,,-2475,-3054,,,-3706,-3658,-4075,,,-2,,,,,
,-774,4,-2085,,-1265,-1509,-2578,,-813,-816,,,-1414,-1266,-1550,,,5,,,,,
,1720,19,-520,,-308,-177,-384,,-266,-58,,,-395,-94,-51,,,-5,,,,,
,-1486,2,514,,621,685,734,,557,725,,,837,835,811,,,-8,,,,,
,-351,-21,3348,,2701,3473,4464,,2493,2979,,,3830,3636,3925,,,-1,,,,,
,173,-13,1288,,796,1289,2139,,611,760,,,1353,1275,1440,,,9,,,,,
,-406,-1,1079,,567,589,892,,343,90,,,326,117,115,,,11,,,,,
,2642,11,640,,-19,-225,-174,,-355,-713,,,-747,-785,-743,,,-13,,,,,
,-2028,2,-4406,,-3139,-3940,-4992,,-2598,-3011,,,-3813,-3624,-3949,,,-5,,,,,
,-21,-1,-2579,,-1326,-1889,-2693,,-785,-827,,,-1317,-1249,-1508,,,-6,,,,,
,1020,,-511,,-243,-363,-592,,-127,-57,,,-81,-56,-102,,,11,,,,,
,-1717,6,-7,,397,552,288,,608,680,,,1011,890,789,,,-6,,,,,
,399,-6,3901,,3068,3883,4791,,2582,3010,,,3671,3608,3916,,,8,,,,,
,332,-11,2383,,1274,1678,2702,,772,828,,,1307,1283,1520,,,8,,,,,
,-633,12,220,,125,73,382,,108,52,,,225,123,133,,,-6,,,,,
,-44,-12,-1243,,-962,-945,-881,,-758,-761,,,-750,-851,-836,,,-2,,,,,
,570,12,-4144,,-3149,-3792,-4859,,-2755,-3044,,,-3998,-3632,-3845,,,1,,,,,
,-26,-2,-1965,,-1071,-1464,-2415,,-721,-763,,,-1527,-1256,-1446,,,4,,,,,
,-4,-10,-542,,-278,-291,-483,,-69,7,,,-100,-120,-298,,,-2,,,,,
,663,-20,681,,751,672,774,,746,783,,,980,815,869,,,2,,,,,
,-1202,-3,4141,,3107,3873,4934,,2609,3037,,,3738,3643,4052,,,-3,,,,,
,340,25,2202,,1150,1673,2458,,815,768,,,1467,1327,1568,,,6,,,,,
,756,-21,548,,245,351,449,,112,14,,,134,97,-3,,,2,,,,,
,-1160,19,-531,,-603,-733,-797,,-678,-784,,,-839,-797,-838,,,-10,,,,,
,258,-20,-4172,,-3189,-4128,-4853,,-2629,-3108,,,-3805,-3575,-3757,,,2,,,,,
,47,2,-2232,,-1258,-1773,-2515,,-680,-863,,,-1325,-1278,-1555,,,10,,,,,
,1680,1,-515,,-242,-254,-585,,-107,-37,,,-62,-82,-220,,,-4,,,,,
,-1294,-13,663,,663,891,800,,666,766,,,895,784,690,,,-2,,,,,
,18,12,4140,,3187,3942,4951,,2703,3052,,,3640,3562,3957,,,-1,,,,,
,-314,-12,2139,,1172,1523,2517,,656,822,,,1200,1216,1576,,,-3,,,,,
,26,17,58,,-82,40,338,,-214,-39,,,103,164,255,,,1,,,,,
,125,,-729,,-773,-762,-920,,-733,-847,,,-759,-801,-900,,,-5,,,,,
,-459,-18,-4069,,-3163,-3812,-5034,,-2602,-3057,,,-3807,-3632,-4086,,,-4,,,,,
,1504,,-1951,,-1086,-1571,-2444,,-656,-749,,,-1412,-1291,-1575,,,3,,,,,
,-578,2,-337,,-44,-268,-396,,89,15,,,-315,-175,-126,,,-4,,,,,
,-590,-2,526,,722,778,706,,713,782,,,885,758,896,,,-3,,,,,
,-231,13,4127,,3138,4061,4991,,2420,3056,,,3562,3599,3897,,,10,,,,,
,547,-12,2208,,1044,1759,2632,,550,823,,,1276,1291,1446,,,5,,,,,
,731,,329,,74,200,451,,-107,-8,,,164,161,192,,,-8,,,,,
,-1101,,-767,,-778,-913,-921,,-731,-853,,,-696,-734,-759,,,8,,,,,
,179,-1,-4103,,-3054,-3857,-4950,,-2560,-3008,,,-3891,-3647,-3906,,,5,,,,,
,-66,3,-1975,,-1071,-1427,-2360,,-602,-714,,,-1509,-1279,-1465,,,-4,,,,,
,17,-22,-418,,-165,-76,-498,,-57,-29,,,-32,-63,-160,,,-2,,,,,
,-250,21,632,,608,762,812,,603,758,,,849,866,854,,,-9,,,,,
,-136,-21,4076,,3098,3756,4906,,2681,3033,,,3841,3589,3999,,,-5,,,,,
,220,11,2045,,1176,1549,2437,,703,813,,,1328,1185,1468,,,-6,,,,,
,916,-12,453,,251,359,413,,158,61,,,284,112,60,,,12,,,,,
,1475,1,-657,,-586,-716,-856,,-548,-784,,,-614,-777,-798,,,2,,,,,
,-2291,2,-4103,,-3052,-3897,-4846,,-2648,-3055,,,-3718,-3585,-3941,,,-6,,,,,
,425,-2,-2032,,-1088,-1641,-2429,,-651,-790,,,-1482,-1265,-1467,,,10,,,,,
,50,-10,-350,,-179,-269,-525,,-31,-33,,,-428,-142,-51,,,1,,,,,
,-89,1,437,,464,715,648,,490,721,,,853,822,866,,,-10,,,,,
,502,-1,4272,,3171,4070,4965,,2632,3064,,,3917,3669,3734,,,16,,,,,
,-1066,,2326,,1203,1665,2588,,815,803,,,1380,1265,1480,,,1,,,,,
,401,10,264,,188,74,407,,118,17,,,235,127,243,,,-13,,,,,
,1764,-10,-847,,-757,-899,-896,,-758,-809,,,-858,-766,-743,,,8,,,,,
,-1598,-19,-4010,,-3058,-3797,-4964,,-2686,-3039,,,-3927,-3653,-3958,,,7,,,,,
,750,-1,-2089,,-1162,-1558,-2399,,-743,-785,,,-1499,-1364,-1635,,,,,,,,
,-949,-1,-424,,-136,-335,-526,,30,-45,,,-16,-109,-291,,,-13,,,,,
,-34,20,601,,730,644,706,,714,781,,,727,787,872,,,-6,,,,,
,-98,-2,4232,,3154,3948,5041,,2548,3135,,,3610,3528,3913,,,9,,,,,
,3367,3,2008,,987,1602,2370,,550,758,,,1318,1297,1615,,,,,,,,
,-3704,-1,349,,43,230,316,,57,-15,,,379,202,115,,,-5,,,,,
,2506,-19,-703,,-627,-762,-686,,-607,-801,,,-663,-738,-876,,,3,,,,,
,-1981,-1,-4074,,-3032,-3917,-4798,,-2633,-3000,,,-3923,-3645,-3732,,,7,,,,,
,-168,-10,-1990,,-1141,-1588,-2513,,-727,-693,,,-1645,-1366,-1548,,,-7,,,,,
,152,-1,-662,,-378,-227,-622,,-80,44,,,-73,-123,-392,,,-13,,,,,
,266,-3,618,,613,840,654,,634,752,,,875,809,559,,,1,,,,,
,-405,4,3975,,3059,3729,4861,,2676,3028,,,3775,3617,3947,,,4,,,,,
,-120,,2022,,1170,1449,2558,,750,800,,,1204,1212,1606,,,13,,,,,
,667,7,325,,164,125,276,,55,-53,,,269,108,44,,,-9,,,,,
,-653,-8,-898,,-888,-878,-945,,-747,-785,,,-800,-787,-717,,,-1,,,,,
,-205,,-4125,,-3135,-3821,-4896,,-2724,-2994,,,-3917,-3582,-3843,,,8,,,,,
,-184,10,-1962,,-1076,-1581,-2409,,-675,-755,,,-1370,-1258,-1538,,,1,,,,,
,329,2,-385,,-169,-393,-513,,83,-46,,,17,-155,-212,,,-9,,,,,
,87,-12,634,,616,724,770,,571,780,,,591,735,816,,,-13,,,,,
,244,1,4191,,3165,4080,5014,,2537,3098,,,3574,3629,3892,,,12,,,,,
,-106,-20,2243,,1274,1795,2570,,771,797,,,1444,1308,1477,,,8,,,,,
,140,19,365,,186,138,368,,-1,-38,,,211,177,243,,,,,,,,
,39,1,-639,,-550,-887,-762,,-541,-742,,,-707,-755,-743,,,-2,,,,,
,15,-22,-4261,,-3161,-4045,-4915,,-2611,-3065,,,-3666,-3632,-3996,,,1,,,,,
,78,24,-2018,,-1202,-1560,-2463,,-755,-768,,,-1329,-1303,-1620,,,-3,,,,,
,-22,-22,-16,,15,87,-227,,-46,39,,,-596,-250,-184,,,-2,,,,,
,529,,693,,782,800,746,,820,716,,,1005,824,771,,,16,,,,,
,1197,-11,4208,,3341,3787,4835,,2919,3035,,,4021,3622,3829,,,-3,,,,,
,-1703,2,1834,,974,1372,2418,,729,770,,,1528,1266,1424,,,-19,,,,,
,60,-4,293,,98,268,474,,-95,24,,,-28,84,154,,,-5,,,,,
,415,-1,-467,,-553,-597,-674,,-696,-723,,,-1049,-837,-801,,,4,,,,,
,-822,19,-4110,,-3130,-3903,-4956,,-2654,-3026,,,-3623,-3566,-3937,,,7,,,,,
,80,-16,-2048,,-1239,-1640,-2474,,-825,-796,,,-1503,-1319,-1398,,,5,,,,,
,670,-1,-460,,-186,-270,-316,,-90,39,,,-290,-178,-137,,,-8,,,,,
,-755,17,405,,565,736,585,,617,783,,,859,837,779,,,-6,,,,,
,51,-17,4125,,3121,4050,4825,,2555,3034,,,3737,3645,3939,,,3,,,,,
,-337,1,2245,,1257,1722,2635,,746,768,,,1456,1291,1594,,,3,,,,,
,427,,515,,207,176,560,,82,48,,,121,86,246,,,6,,,,,
,-224,26,-932,,-887,-980,-968,,-822,-785,,,-873,-786,-818,,,6,,,,,
,-39,-14,-3881,,-3182,-3780,-4876,,-2723,-3060,,,-3866,-3588,-4054,,,-1,,,,,
,-3,-12,-1774,,-1067,-1506,-2449,,-625,-779,,,-1434,-1316,-1627,,,,,,,,
,211,,-217,,-34,-191,-501,,122,4,,,-55,-115,-205,,,-9,,,,,
,682,-1,761,,815,731,778,,805,786,,,694,772,881,,,8,,,,,
,-586,-14,4058,,3010,3852,4910,,2498,3025,,,3713,3595,4017,,,7,,,,,
,91,16,2831,,1372,1904,2732,,690,862,,,1427,1257,1378,,,-3,,,,,
,-371,,801,,248,431,554,,70,32,,,301,127,123,,,-12,,,,,
,167,-1,-237,,-665,-685,-643,,-660,-735,,,-815,-765,-733,,,6,,,,,
,-73,-20,-2694,,-2525,-3418,-4209,,-2405,-2864,,,-3889,-3691,-4001,,,1,,,,,
,273,-1,-1071,,-905,-1422,-2267,,-634,-752,,,-1312,-1304,-1553,,,-11,,,,,
,-40,-11,335,,-54,20,-292,,-79,-14,,,-159,-118,-271,,,11,,,,,
,8,2,1510,,905,1148,1182,,608,760,,,629,765,832,,,8,,,,,
,-543,16,4693,,3224,3972,5053,,2638,3013,,,3790,3627,4062,,,-2,,,,,
,285,-16,2572,,1222,1458,2431,,850,773,,,1608,1328,1589,,,,,,,,
,197,10,1062,,393,273,589,,180,35,,,174,133,123,,,2,,,,,
,-568,-12,-194,,-520,-550,-659,,-668,-760,,,-986,-841,-823,,,-7,,,,,
,625,11,-3850,,-2952,-3596,-4665,,-2576,-3008,,,-3831,-3660,-4031,,,-6,,,,,
,596,-10,-1670,,-1011,-1439,-2209,,-687,-734,,,-1493,-1280,-1437,,,-7,,,,,
,-240,,-158,,-161,-296,-453,,-12,7,,,-87,-105,-53,,,2,,,,,
,-750,11,498,,560,646,584,,577,706,,,823,775,747,,,11,,,,,
,-71,-10,3987,,3092,3940,4845,,2489,3034,,,3693,3658,3924,,,-13,,,,,
,771,-22,2273,,1236,1732,2490,,761,818,,,1465,1293,1384,,,13,,,,,
,-817,-1,244,,44,152,371,,84,-5,,,210,85,86,,,-3,,,,,
,482,,-1055,,-772,-1067,-835,,-756,-815,,,-880,-820,-674,,,5,,,,,
,38,18,-4364,,-3207,-4076,-5022,,-2656,-3062,,,-3920,-3638,-3833,,,-5,,,,,
,388,-16,-2396,,-1233,-1676,-2695,,-532,-812,,,-1256,-1236,-1576,,,7,,,,,
,137,1,-730,,-351,-228,-607,,-145,-69,,,-61,-37,-148,,,-11,,,,,
,-1163,-11,181,,477,653,621,,506,755,,,924,833,762,,,2,,,,,
,870,10,3518,,3013,3699,4717,,2659,3106,,,3829,3603,3954,,,9,,,,,
,734,-12,1659,,1024,1429,2412,,635,841,,,1282,1262,1576,,,-10,,,,,
,-1149,14,139,,77,213,425,,-97,-36,,,-118,101,274,,,5,,,,,
,561,-12,-1016,,-773,-787,-937,,-790,-846,,,-1110,-827,-687,,,5,,,,,
,444,,-4528,,-3242,-4071,-5162,,-2597,-3139,,,-3600,-3597,-4092,,,-4,,,,,
,3372,11,-2262,,-1168,-1752,-2558,,-448,-777,,,-1117,-1260,-1583,,,-1,,,,,
,-3471,-1,-546,,-72,-326,-582,,214,-9,,,178,-77,-202,,,-12,,,,,
,626,-11,231,,607,777,678,,589,788,,,658,789,852,,,10,,,,,
,-1052,11,3784,,2993,3867,4851,,2489,3011,,,3672,3637,3976,,,-2,,,,,
,480,-12,2125,,1211,1518,2419,,834,767,,,1553,1294,1535,,,,,,,,
,262,14,127,,74,10,350,,33,27,,,225,76,173,,,7,,,,,
,-767,-1,-834,,-720,-805,-755,,-650,-727,,,-877,-848,-731,,,2,,,,,
,162,-2,-3950,,-2958,-3670,-4774,,-2656,-3024,,,-4054,-3630,-3822,,,,,,,,
,-790,-32,-2340,,-1219,-1550,-2630,,-736,-800,,,-1293,-1243,-1615,,,3,,,,,
,1787,2,-757,,-358,-378,-643,,-242,-69,,,-121,-101,-126,,,-4,,,,,
,-1895,30,534,,657,625,825,,624,745,,,787,745,767,,,-3,,,,,
,2169,-11,3776,,3047,3756,4715,,2663,3037,,,3753,3583,3859,,,-8,,,,,
,-1884,19,1914,,1055,1554,2336,,711,806,,,1414,1276,1331,,,-7,,,,,
,213,-37,383,,98,241,339,,64,,,,324,173,47,,,20,,,,,
,464,,-902,,-756,-905,-908,,-549,-853,,,-472,-706,-732,,,-2,,,,,
,742,,-4092,,-3057,-3953,-4857,,-2603,-3034,,,-3853,-3639,-3818,,,-5,,,,,
,-1223,11,-1991,,-1095,-1536,-2328,,-767,-734,,,-1577,-1301,-1410,,,3,,,,,
,16,-24,-513,,-173,-132,-496,,-102,-7,,,-166,-96,-127,,,6,,,,,
,-285,13,475,,676,828,590,,762,765,,,1054,804,585,,,-4,,,,,
,819,-12,4086,,3064,3872,4805,,2517,3041,,,3584,3603,3884,,,-10,,,,,
,-196,12,2076,,1136,1526,2574,,487,794,,,1053,1280,1663,,,6,,,,,
,-124,-11,358,,158,171,449,,22,41,,,129,95,170,,,-7,,,,,
,-18,11,-794,,-760,-828,-843,,-631,-817,,,-747,-757,-669,,,-11,,,,,
,233,,-3980,,-2948,-3672,-4783,,-2476,-2962,,,-3640,-3590,-4050,,,8,,,,,
,-623,-12,-2061,,-1108,-1543,-2402,,-645,-753,,,-1342,-1271,-1558,,,11,,,,,
,846,12,-577,,-242,-373,-493,,-68,-40,,,-230,-137,-58,,,-3,,,,,
,-828,-11,493,,578,669,642,,620,706,,,875,759,723,,,-1,,,,,
,258,12,4029,,3033,3904,4752,,2546,2985,,,3875,3621,3883,,,-4,,,,,
,1122,-12,1864,,1004,1556,2432,,586,749,,,1331,1296,1569,,,3,,,,,
,1609,-8,281,,150,154,437,,51,19,,,70,110,132,,,-14,,,,,
,-1348,9,-500,,-542,-816,-763,,-520,-743,,,-727,-790,-888,,,6,,,,,
,-1520,-23,-4314,,-3222,-4077,-5089,,-2545,-3065,,,-3745,-3639,-3844,,,7,,,,,
,187,19,-2115,,-1189,-1673,-2566,,-702,-832,,,-1292,-1310,-1554,,,-1,,,,,
,3167,4,-175,,-288,-135,-474,,-241,-119,,,-258,-110,-164,,,7,,,,,
,-2893,-21,660,,734,763,797,,711,729,,,921,879,934,,,-5,,,,,
,-568,19,4167,,3318,3871,4970,,2873,3141,,,4047,3673,3956,,,,,,,,
,1720,-19,2108,,1213,1584,2508,,753,849,,,1295,1201,1514,,,8,,,,,
,-451,41,437,,171,370,518,,-34,70,,,-211,39,106,,,4,,,,,
,-914,-54,-821,,-798,-756,-911,,-837,-833,,,-809,-777,-827,,,-1,,,,,
,696,13,-4296,,-3242,-4055,-5046,,-2673,-3120,,,-3541,-3527,-3890,,,-18,,,,,
,-908,,-2043,,-1172,-1779,-2526,,-669,-850,,,-1501,-1304,-1384,,,11,,,,,
,248,14,-430,,-221,-343,-548,,-52,-22,,,-116,-149,-194,,,6,,,,,
,-377,-14,577,,650,818,815,,688,817,,,1032,849,652,,,-7,,,,,
,886,-11,4229,,3123,4028,5035,,2494,3057,,,3616,3656,3953,,,1,,,,,
,-472,,2044,,1078,1542,2462,,652,739,,,1268,1264,1692,,,4,,,,,
,-299,,234,,117,22,283,,163,-33,,,239,63,236,,,-7,,,,,
,312,,-916,,-761,-886,-936,,-625,-793,,,-822,-783,-720,,,,,,,,
,-498,1,-4029,,-3032,-3711,-4796,,-2704,-3006,,,-3821,-3635,-4094,,,6,,,,,
,383,,-1897,,-1077,-1339,-2208,,-771,-686,,,-1414,-1332,-1595,,,-5,,,,,
,1112,-1,-468,,-192,-175,-486,,1,29,,,-103,-105,-44,,,-12,,,,,
,-432,-20,521,,724,688,656,,785,753,,,910,754,721,,,8,,,,,
,-799,19,3677,,2915,3630,4672,,2619,2944,,,4018,3600,3809,,,8,,,,,
,35,-2,2093,,1080,1641,2543,,547,787,,,1219,1280,1401,,,-3,,,,,
,591,4,724,,268,476,687,,-107,79,,,-214,126,142,,,-6,,,,,
,1061,-21,-881,,-780,-873,-949,,-733,-792,,,-730,-775,-788,,,4,,,,,
,-768,20,-4310,,-3192,-4099,-5083,,-2608,-3048,,,-3650,-3575,-3877,,,6,,,,,
,-592,-19,-1913,,-1063,-1576,-2478,,-572,-785,,,-1396,-1340,-1585,,,-8,,,,,
,103,-11,-392,,-117,-122,-433,,16,20,,,-268,-167,-102,,,-11,,,,,
,1241,10,716,,701,936,729,,661,828,,,784,760,754,,,10,,,,,
,-1298,3,4034,,3053,3745,4880,,2580,3020,,,3832,3657,3973,,,-3,,,,,
,2701,-13,1890,,1080,1420,2516,,665,805,,,1420,1263,1563,,,,,,,,
,-2439,,-319,,-157,-74,183,,-95,-70,,,15,115,262,,,-6,,,,,
,-724,10,-1200,,-850,-943,-1038,,-689,-810,,,-732,-765,-707,,,12,,,,,
,399,,-2960,,-2718,-3481,-4499,,-2458,-2973,,,-3607,-3571,-3888,,,-2,,,,,
,-196,-12,-1576,,-922,-1416,-2324,,-650,-754,,,-1360,-1305,-1627,,,3,,,,,
,349,-1,-109,,142,-133,-297,,91,37,,,-229,-205,-295,,,-3,,,,,
,1440,13,300,,608,590,552,,741,751,,,961,796,674,,,1,,,,,
,-1273,-10,3494,,2892,3729,4660,,2525,3053,,,3827,3639,3906,,,8,,,,,
,186,,2232,,1217,1722,2489,,715,751,,,1398,1258,1539,,,-2,,,,,
,-630,-21,845,,341,399,618,,50,21,,,-83,98,395,,,-6,,,,,
,1882,1,-772,,-740,-1012,-953,,-619,-793,,,-799,-791,-732,,,4,,,,,
,-2308,20,-3958,,-3087,-3935,-4908,,-2623,-3051,,,-3730,-3611,-4160,,,-17,,,,,
,-25,-23,-2158,,-1195,-1549,-2545,,-754,-793,,,-1386,-1210,-1512,,,3,,,,,
,847,22,-280,,-125,-73,-431,,-53,-9,,,-102,-132,-158,,,21,,,,,
,-878,-19,728,,692,843,873,,641,762,,,870,821,802,,,3,,,,,
,538,19,3846,,3057,3726,4814,,2819,3024,,,3985,3667,3873,,,-9,,,,,
,425,-18,2041,,1033,1445,2374,,741,719,,,1508,1354,1643,,,-1,,,,,
,-207,-2,376,,85,223,423,,-61,-11,,,181,127,312,,,-7,,,,,
,-678,-13,-659,,-683,-605,-660,,-839,-740,,,-1137,-808,-617,,,10,,,,,
,1060,1,-4039,,-3061,-3849,-4901,,-2668,-3043,,,-3944,-3609,-3887,,,-2,,,,,
,-907,2,-2198,,-1284,-1840,-2693,,-527,-811,,,-1113,-1245,-1639,,,-5,,,,,
,820,12,-288,,-59,-209,-485,,121,30,,,-90,-228,-331,,,-3,,,,,
,-1042,2,756,,787,913,772,,595,780,,,680,749,760,,,,,,,,
,1249,-14,4032,,3095,3953,4989,,2567,3025,,,3859,3668,3849,,,4,,,,,
,-665,-1,2135,,1156,1592,2582,,603,802,,,1253,1335,1628,,,1,,,,,
,-93,1,281,,75,-54,351,,72,-23,,,303,165,308,,,-9,,,,,
,407,,-823,,-789,-969,-991,,-608,-825,,,-692,-798,-660,,,17,,,,,
,1536,10,-4091,,-3161,-3760,-4987,,-2704,-3001,,,-3811,-3644,-3904,,,-5,,,,,
,-1359,-4,-1991,,-1089,-1422,-2471,,-603,-730,,,-1267,-1270,-1689,,,-5,,,,,
,1171,7,-457,,-169,-261,-354,,-58,34,,,-152,-125,-222,,,-4,,,,,
,-2381,-13,621,,666,698,816,,584,789,,,782,783,841,,,6,,,,,
,635,9,4055,,3121,3850,4784,,2574,2989,,,3677,3576,3923,,,15,,,,,
,28,-30,1848,,970,1515,2304,,626,707,,,1397,1275,1528,,,-14,,,,,
,-297,,353,,53,333,471,,65,58,,,212,121,169,,,-8,,,,,
,184,16,-678,,-622,-754,-822,,-600,-732,,,-824,-863,-813,,,3,,,,,
,48,-20,-3997,,-3015,-3944,-4875,,-2561,-3007,,,-3810,-3653,-3958,,,9,,,,,
,191,13,-2095,,-1127,-1616,-2585,,-612,-751,,,-1345,-1310,-1674,,,-3,,,,,
,-116,,-349,,-154,-103,-423,,-59,20,,,-111,-128,-346,,,-5,,,,,
,833,,654,,677,911,763,,575,708,,,625,739,743,,,-2,,,,,
,2182,2,3770,,3055,3744,4737,,2612,3006,,,3807,3612,3981,,,3,,,,,
,-3427,-2,1999,,1149,1524,2470,,728,779,,,1472,1288,1577,,,-3,,,,,
,293,-12,381,,96,233,436,,-59,27,,,74,102,181,,,-3,,,,,
,327,22,-722,,-654,-630,-787,,-651,-724,,,-819,-832,-952,,,4,,,,,
,-412,-9,-3968,,-2979,-3671,-4756,,-2615,-2989,,,-3857,-3683,-4045,,,-4,,,,,
,-145,,-1932,,-1123,-1581,-2516,,-638,-788,,,-1256,-1239,-1436,,,5,,,,,
,156,11,-331,,-83,-321,-412,,124,-19,,,46,-77,-37,,,5,,,,,
,-559,-32,653,,761,834,786,,705,807,,,781,825,861,,,-4,,,,,
,-133,3,4287,,3243,4030,4900,,2712,3050,,,3790,3569,3691,,,-4,,,,,
,836,,2119,,1110,1711,2476,,659,767,,,1453,1307,1456,,,9,,,,,
,-545,18,494,,90,294,585,,-13,37,,,115,124,179,,,-6,,,,,
,2355,,-490,,-617,-760,-777,,-635,-747,,,-870,-852,-643,,,10,,,,,
,-1705,-16,-4033,,-2986,-3928,-4889,,-2598,-3032,,,-3783,-3634,-3807,,,-2,,,,,
,-346,-2,-2033,,-1055,-1507,-2360,,-713,-732,,,-1391,-1234,-1514,,,-7,,,,,
,457,-27,-465,,-141,-107,-415,,44,-17,,,22,-87,-316,,,-10,,,,,
,-333,27,723,,744,862,788,,737,789,,,758,778,805,,,4,,,,,
,-192,,4102,,3208,3777,4844,,2712,3040,,,3825,3637,4057,,,-3,,,,,
,590,-7,1953,,1063,1370,2312,,680,665,,,1355,1293,1616,,,-2,,,,,
,-451,7,323,,144,211,381,,41,3,,,80,90,55,,,9,,,,,
,280,-11,-726,,-759,-725,-787,,-831,-800,,,-786,-783,-878,,,-4,,,,,
,-623,,-4046,,-3166,-3880,-4964,,-2754,-3083,,,-3667,-3506,-3825,,,13,,,,,
,1517,,-1879,,-1051,-1614,-2453,,-631,-744,,,-1337,-1236,-1343,,,1,,,,,
,-1147,-16,-410,,-178,-313,-394,,2,-38,,,-26,-93,-41,,,-4,,,,,
,-670,16,619,,717,825,823,,683,777,,,798,778,772,,,-3,,,,,
,-333,11,3907,,2845,3785,4700,,2425,3009,,,3683,3680,4010,,,9,,,,,
,728,-27,2174,,1083,1542,2462,,756,808,,,1469,1300,1360,,,-1,,,,,
,-268,,478,,192,178,605,,99,56,,,64,30,69,,,-2,,,,,
,412,-22,-652,,-619,-871,-808,,-525,-798,,,-646,-812,-792,,,-4,,,,,
,-410,21,-4103,,-3089,-3840,-4884,,-2544,-3069,,,-3523,-3570,-3960,,,2,,,,,
,1597,-20,-1943,,-1061,-1338,-2246,,-815,-766,,,-1690,-1267,-1345,,,-5,,,,,
,-1214,37,-355,,-97,-216,-372,,-116,-17,,,-401,-89,1,,,-7,,,,,
,547,-36,480,,547,524,583,,610,722,,,1014,815,846,,,16,,,,,
,-866,36,4053,,3111,3758,4651,,2713,3078,,,3880,3571,3759,,,2,,,,,
,249,-40,2297,,1258,1722,2484,,767,878,,,1296,1244,1332,,,-10,,,,,
,141,-6,495,,194,422,499,,-4,27,,,88,133,141,,,3,,,,,
,-1158,10,-756,,-696,-761,-785,,-605,-805,,,-631,-762,-828,,,12,,,,,
,166,2,-4189,,-3121,-4048,-4695,,-2616,-3069,,,-3771,-3613,-3744,,,-7,,,,,
,-137,-2,-2013,,-1165,-1645,-2504,,-700,-813,,,-1434,-1305,-1460,,,-5,,,,,
,3033,-10,-327,,-154,-157,-507,,-37,-33,,,-260,-154,-232,,,-14,,,,,
,-1582,-2,675,,693,804,690,,700,762,,,929,854,779,,,7,,,,,
,2109,12,4211,,3061,3896,4836,,2682,3078,,,4007,3686,3864,,,1,,,,,
,-2272,-1,2063,,1206,1543,2525,,815,847,,,1435,1323,1625,,,-6,,,,,
,-539,5,335,,157,183,465,,147,26,,,85,80,194,,,4,,,,,
,-75,-2,-736,,-787,-849,-908,,-782,-861,,,-786,-831,-846,,,2,,,,,
,2444,7,-4278,,-3218,-3872,-4920,,-2787,-3090,,,-3708,-3588,-3937,,,6,,,,,
,2189,27,-2100,,-1198,-1569,-2356,,-792,-802,,,-1322,-1257,-1485,,,12,,,,,
,-3792,-34,-348,,-172,-276,-400,,-151,-33,,,-308,-107,-75,,,-16,,,,,
,227,-34,629,,648,718,734,,638,808,,,739,787,768,,,-13,,,,,
,-642,7,4102,,3136,3950,4873,,2731,3107,,,3888,3604,3820,,,16,,,,,
,-245,-6,2227,,1252,1831,2603,,786,823,,,1409,1267,1506,,,1,,,,,
,-655,-1,637,,304,381,552,,13,35,,,-61,93,203,,,,,,,,
,26,22,-864,,-768,-987,-923,,-720,-813,,,-797,-763,-718,,,,,,,,
,241,-20,-4415,,-3322,-4090,-5069,,-2713,-3091,,,-3765,-3560,-3841,,,-2,,,,,
,765,21,-2145,,-1214,-1594,-2510,,-785,-788,,,-1440,-1291,-1584,,,-8,,,,,
,-795,-3,-246,,-19,-32,-373,,114,52,,,-15,-140,-455,,,2,,,,,
,29,-18,792,,731,898,930,,898,843,,,920,771,764,,,10,,,,,
,574,1,4185,,3264,3878,4882,,2670,3059,,,3871,3696,4118,,,-5,,,,,
,-762,,2193,,1256,1624,2545,,675,770,,,1431,1308,1521,,,-7,,,,,
,1237,2,559,,255,342,587,,31,-33,,,18,109,164,,,-7,,,,,
,-1200,-7,-626,,-640,-676,-779,,-633,-818,,,-968,-806,-782,,,-3,,,,,
,-76,4,-4072,,-3157,-3946,-4965,,-2617,-3051,,,-3582,-3595,-3900,,,6,,,,,
,-32,7,-2142,,-1316,-1747,-2374,,-879,-764,,,-1364,-1258,-1382,,,5,,,,,
,1580,-21,-338,,-135,-153,-342,,-74,16,,,-246,-103,-62,,,4,,,,,
,-1326,14,767,,765,915,774,,692,730,,,929,845,772,,,1,,,,,
,209,-13,3996,,3128,3980,4788,,2689,3045,,,3869,3616,3822,,,-5,,,,,
,-186,15,1452,,861,1345,2097,,674,743,,,1487,1287,1499,,,4,,,,,
,-216,,4,,69,-47,124,,85,-18,,,162,132,113,,,-3,,,,,
,131,-9,-317,,-536,-680,-559,,-560,-733,,,-882,-842,-828,,,6,,,,,
,73,-9,-3160,,-2622,-3438,-4378,,-2449,-3000,,,-3763,-3691,-3985,,,2,,,,,
,-169,-15,-1535,,-997,-1307,-2195,,-688,-831,,,-1449,-1240,-1466,,,-4,,,,,
,223,,-985,,-451,-476,-687,,-175,-84,,,-177,-70,-166,,,6,,,,,
,-542,-1,-152,,340,327,410,,513,720,,,881,822,920,,,-1,,,,,
,483,1,3866,,3069,3777,4832,,2634,3054,,,3833,3576,3780,,,10,,,,,
,395,2,1866,,1024,1567,2415,,662,820,,,1412,1273,1512,,,-6,,,,,
,-186,19,373,,64,299,480,,-77,-14,,,140,180,305,,,-2,,,,,
,5725,-21,-545,,-632,-757,-733,,-740,-871,,,-718,-760,-747,,,5,,,,,
,-3621,,-3966,,-2904,-3915,-4881,,-2440,-3028,,,-3573,-3628,-3904,,,-3,,,,,
,-2448,15,-1856,,-983,-1493,-2291,,-609,-685,,,-1776,-1402,-1389,,,3,,,,,
,852,-14,-427,,-203,-128,-508,,-123,-3,,,-369,-130,-239,,,-5,,,,,
,-870,1,624,,663,866,723,,768,741,,,1054,830,470,,,2,,,,,
,151,-1,4225,,3178,3948,4928,,2712,3062,,,4055,3609,3729,,,,,,,,
,-12,-11,2095,,1174,1533,2595,,677,820,,,1400,1286,1668,,,-3,,,,,
,295,12,529,,215,269,592,,-37,27,,,180,180,373,,,3,,,,,
,673,-15,-602,,-650,-722,-849,,-759,-786,,,-936,-765,-658,,,-4,,,,,
,-322,,-4236,,-3155,-3816,-5000,,-2559,-3015,,,-3610,-3586,-3955,,,4,,,,,
,-281,14,-1900,,-1035,-1464,-2337,,-642,-728,,,-1572,-1364,-1543,,,5,,,,,
,-44,1,-398,,-120,-354,-356,,-7,-13,,,-278,-184,-148,,,-8,,,,,
,475,-15,496,,720,733,717,,790,759,,,985,790,705,,,-4,,,,,
,-1232,12,4003,,3030,3970,4914,,2542,3058,,,3729,3611,3961,,,-1,,,,,
,155,-1,1993,,953,1629,2559,,443,740,,,1246,1252,1670,,,3,,,,,
,1748,-11,467,,193,249,521,,-14,36,,,102,101,235,,,6,,,,,
,-576,4,-469,,-549,-745,-686,,-588,-731,,,-810,-838,-907,,,-4,,,,,
,-485,-15,-4203,,-3124,-3973,-4962,,-2623,-3056,,,-3801,-3644,-4039,,,-4,,,,,
,280,-9,-2173,,-1203,-1603,-2571,,-645,-754,,,-1316,-1308,-1616,,,2,,,,,
,-605,23,-300,,-212,-71,-446,,-91,17,,,-139,-152,-313,,,-1,,,,,
,-10,-19,568,,529,789,659,,585,760,,,759,756,694,,,6,,,,,
,425,16,4013,,3140,3751,4824,,2585,3035,,,3561,3613,4024,,,4,,,,,
,-1035,-18,2038,,1029,1461,2599,,559,726,,,1267,1333,1809,,,-4,,,,,
,2811,1,402,,36,195,357,,-67,-27,,,98,110,161,,,-8,,,,,
,-2410,,-652,,-651,-704,-888,,-534,-771,,,-639,-780,-968,,,-14,,,,,
,691,,-3959,,-2996,-3822,-4863,,-2403,-3062,,,-3444,-3526,-3938,,,16,,,,,
,-998,-1,-1849,,-1065,-1659,-2416,,-587,-778,,,-1383,-1187,-1344,,,6,,,,,
,817,6,-589,,-334,-451,-615,,-77,-24,,,-139,-58,-121,,,-7,,,,,
,-89,-7,508,,575,715,684,,569,760,,,906,775,753,,,,,,,,
,-67,1,4433,,3288,4135,5005,,2620,3109,,,3845,3600,3902,,,2,,,,,
,47,2,2065,,1111,1580,2423,,589,751,,,1550,1315,1624,,,-6,,,,,
,-121,-1,398,,223,160,520,,31,-8,,,158,120,329,,,2,,,,,
,26,2,-771,,-547,-836,-598,,-627,-749,,,-1109,-885,-777,,,6,,,,,
,804,-2,-3901,,-3050,-3775,-4863,,-2411,-3001,,,-3600,-3694,-4103,,,2,,,,,
,-681,-1,-1916,,-1091,-1350,-2314,,-717,-752,,,-1695,-1305,-1449,,,,,,,,
,-302,-8,-447,,-160,-212,-476,,20,-3,,,-103,-27,-109,,,4,,,,,
,-204,-8,654,,710,682,760,,780,780,,,887,776,728,,,-2,,,,,
,1906,15,4055,,3113,3771,4813,,2672,3032,,,3820,3600,3922,,,-21,,,,,
,1719,,1900,,1022,1494,2372,,583,708,,,1408,1296,1565,,,4,,,,,
,-3180,-17,461,,96,306,500,,-139,-15,,,58,142,174,,,9,,,,,
,385,,-516,,-605,-709,-710,,-706,-775,,,-786,-802,-836,,,-8,,,,,
,-839,10,-4330,,-3151,-4093,-5023,,-2564,-3041,,,-3653,-3601,-3956,,,4,,,,,
,789,8,-2184,,-1215,-1721,-2419,,-718,-769,,,-1371,-1309,-1584,,,12,,,,,
,-383,-23,-332,,-194,-147,-352,,-137,10,,,-230,-84,-226,,,-5,,,,,
,-396,5,700,,681,953,792,,684,737,,,984,822,688,,,1,,,,,
,155,,3996,,3084,3944,4968,,2605,3063,,,3721,3604,3995,,,-10,,,,,
,-74,-8,1951,,1047,1460,2500,,665,785,,,1298,1307,1846,,,1,,,,,
,1119,,281,,101,78,329,,73,-37,,,160,106,165,,,7,,,,,
,-1084,8,-884,,-694,-897,-1109,,-575,-803,,,-605,-793,-1011,,,,,,,,
,-136,,-4069,,-3140,-3838,-5000,,-2707,-3102,,,-3683,-3563,-4034,,,-9,,,,,
,-211,10,-1856,,-1155,-1539,-2376,,-807,-756,,,-1765,-1295,-1423,,,4,,,,,
,191,-10,-331,,-38,-294,-376,,52,45,,,-122,-130,-202,,,5,,,,,
,1131,-7,663,,651,693,731,,645,771,,,954,795,745,,,11,,,,,
,-1077,-16,4019,,2971,3868,4846,,2533,3026,,,3728,3618,3995,,,-10,,,,,
,4231,23,2094,,1096,1664,2543,,715,793,,,1393,1283,1497,,,-6,,,,,
,-3662,-38,581,,231,307,480,,127,8,,,141,187,195,,,3,,,,,
,-293,-1,-769,,-696,-967,-726,,-680,-792,,,-911,-761,-548,,,3,,,,,
,-131,-3,-3999,,-2954,-3798,-4729,,-2435,-2960,,,-3626,-3641,-3972,,,-6,,,,,
,42,18,-2173,,-1163,-1610,-2526,,-796,-835,,,-1381,-1283,-1486,,,-2,,,,,
,133,-20,-785,,-256,-254,-763,,-107,-33,,,-137,-66,-193,,,,,,,,
,30,35,285,,495,752,723,,647,732,,,845,779,729,,,7,,,,,
,-563,-15,4921,,3523,4230,5484,,2744,3158,,,3813,3552,4021,,,-6,,,,,
,359,16,3397,,1599,1929,2984,,866,913,,,1457,1210,1506,,,-6,,,,,
,-168,-34,518,,153,219,404,,55,48,,,164,67,38,,,5,,,,,
,270,-1,-912,,-823,-808,-899,,-775,-824,,,-984,-841,-880,,,4,,,,,
,158,36,-3911,,-3158,-3886,-4857,,-2721,-3098,,,-3759,-3569,-3831,,,-1,,,,,
,-91,-47,-2022,,-1188,-1642,-2373,,-667,-777,,,-1402,-1265,-1419,,,10,,,,,
,-612,,-134,,-20,-170,-460,,74,-1,,,-178,-84,-105,,,-4,,,,,
,1098,7,688,,678,783,699,,730,767,,,954,867,774,,,-6,,,,,
,-760,-4,3860,,2929,3799,4735,,2506,2997,,,3877,3685,3930,,,4,,,,,
,-6,8,1793,,976,1418,2291,,620,737,,,1476,1290,1518,,,8,,,,,
,223,3,408,,201,176,469,,146,56,,,284,54,-42,,,-10,,,,,
,-121,-2,-671,,-572,-717,-778,,-554,-723,,,-946,-869,-915,,,-2,,,,,
,-131,-1,-4083,,-3068,-3836,-4891,,-2600,-3018,,,-3771,-3633,-3942,,,-12,,,,,
,43,-1,-2147,,-1254,-1565,-2527,,-952,-836,,,-1525,-1249,-1420,,,9,,,,,
,380,2,-540,,-377,-314,-536,,-243,-63,,,-285,-137,-196,,,-8,,,,,
,-138,,577,,593,663,653,,603,729,,,914,859,871,,,9,,,,,
,-180,-27,4074,,3179,3812,4825,,2715,3058,,,3813,3597,3892,,,2,,,,,
,361,12,1999,,1165,1581,2527,,776,833,,,1448,1235,1408,,,-9,,,,,
,-742,-15,562,,329,506,572,,73,90,,,75,56,105,,,3,,,,,
,253,16,-314,,-377,-481,-540,,-578,-671,,,-1093,-843,-701,,,8,,,,,
,-307,-20,-3908,,-3025,-3868,-4771,,-2595,-3015,,,-3786,-3583,-3702,,,8,,,,,
,1775,4,-1892,,-1090,-1559,-2302,,-742,-789,,,-1483,-1244,-1428,,,-8,,,,,
,-1465,-2,-291,,-11,-120,-449,,240,24,,,291,-61,-465,,,-5,,,,,
,668,4,707,,786,953,793,,822,834,,,756,732,666,,,,,,,,
,-259,-2,4041,,3003,3860,4878,,2520,3063,,,3795,3584,3979,,,3,,,,,
,476,-1,1826,,942,1265,2269,,642,685,,,1610,1341,1760,,,2,,,,,
,-495,-11,139,,-26,-3,330,,-181,-124,,,-14,148,350,,,-3,,,,,
,-9,12,-710,,-804,-697,-798,,-939,-832,,,-961,-776,-753,,,1,,,,,
,-572,3,-3741,,-2939,-3577,-4762,,-2624,-2983,,,-3897,-3628,-4036,,,1,,,,,
,827,-3,-2102,,-1069,-1541,-2468,,-646,-724,,,-1319,-1286,-1668,,,1,,,,,
,-298,2,-396,,-55,-310,-525,,131,14,,,-82,-129,-108,,,2,,,,,
,35,-4,579,,676,691,656,,790,748,,,885,812,760,,,,,,,,
,-248,1,3797,,2893,3846,4719,,2474,3002,,,3575,3598,3899,,,13,,,,,
,2803,,1953,,930,1573,2469,,582,717,,,1158,1290,1523,,,-13,,,,,
,-2907,,378,,150,167,489,,129,-22,,,407,128,-5,,,-4,,,,,
,458,-1,-671,,-560,-834,-722,,-452,-742,,,-568,-725,-810,,,1,,,,,
,-394,,-4032,,-3068,-3961,-4901,,-2526,-3069,,,-3571,-3594,-3946,,,2,,,,,
,2923,-13,-2147,,-1260,-1605,-2491,,-885,-819,,,-1565,-1322,-1480,,,-1,,,,,
,-1251,15,-844,,-408,-338,-664,,-276,-45,,,-240,-129,-197,,,5,,,,,
,-2098,-33,467,,569,721,741,,604,811,,,876,804,877,,,-1,,,,,
,211,2,4510,,3290,3984,5163,,2646,3146,,,3690,3614,4008,,,-13,,,,,
,-45,-2,2811,,1512,1774,2658,,909,835,,,1457,1294,1537,,,,,,,,
,-79,22,991,,365,542,643,,109,76,,,175,103,159,,,9,,,,,
,5201,-3,-628,,-610,-595,-612,,-643,-738,,,-841,-803,-806,,,-2,,,,,
,-3525,2,-3976,,-2906,-3662,-4679,,-2471,-2930,,,-3916,-3652,-3872,,,-1,,,,,
,1415,-11,-2347,,-1178,-1741,-2523,,-680,-806,,,-1321,-1316,-1441,,,2,,,,,
,-2427,11,-610,,-254,-404,-556,,-60,-91,,,-215,-139,-22,,,-4,,,,,
,-266,-20,620,,649,742,700,,753,728,,,817,773,717,,,13,,,,,
,-371,,3821,,2896,3800,4580,,2407,2938,,,3692,3626,4020,,,-2,,,,,
,467,-2,2157,,1109,1578,2506,,648,811,,,1527,1281,1391,,,-4,,,,,
,727,,330,,42,-51,359,,-24,-10,,,345,172,74,,,-12,,,,,
,-1544,-10,-943,,-820,-1125,-999,,-713,-840,,,-835,-721,-750,,,8,,,,,
,2033,9,-4104,,-3021,-3839,-4821,,-2687,-3033,,,-3926,-3595,-3926,,,5,,,,,
,-831,1,-1867,,-1117,-1476,-2381,,-673,-741,,,-1480,-1349,-1664,,,4,,,,,
,406,1,-306,,-156,-199,-464,,19,-36,,,-198,-181,-218,,,-1,,,,,
,-292,-12,705,,797,761,873,,744,795,,,693,733,881,,,-1,,,,,
,-97,6,4008,,3148,3845,4868,,2650,3105,,,3698,3610,3941,,,-7,,,,,
,-255,2,2152,,1230,1652,2501,,820,837,,,1390,1290,1481,,,-4,,,,,
,-439,9,413,,156,329,493,,55,2,,,178,148,96,,,13,,,,,
,471,-11,-618,,-645,-697,-682,,-739,-767,,,-724,-725,-745,,,-8,,,,,
,-313,,-4168,,-3078,-3933,-4858,,-2678,-3037,,,-3631,-3596,-3869,,,-2,,,,,
,-191,-11,-2070,,-1187,-1705,-2494,,-732,-788,,,-1541,-1299,-1311,,,8,,,,,
,348,12,-377,,-203,-235,-500,,-53,-9,,,-67,-111,-124,,,-2,,,,,
,-475,-12,639,,612,860,754,,576,777,,,777,798,730,,,,,,,,
,25,12,4079,,3110,3925,4903,,2617,3058,,,3750,3580,3893,,,-6,,,,,
,4498,-12,2246,,1323,1650,2515,,864,850,,,1560,1187,1380,,,-2,,,,,
,-3820,,345,,247,208,563,,215,19,,,121,21,135,,,8,,,,,
,-96,13,-580,,-603,-690,-746,,-587,-780,,,-979,-821,-926,,,-3,,,,,
,-368,-3,-3886,,-2982,-3654,-4814,,-2625,-3029,,,-3733,-3604,-3999,,,-6,,,,,
,-362,1,-2146,,-1247,-1554,-2356,,-727,-773,,,-1426,-1261,-1440,,,5,,,,,
,-119,-11,-622,,-226,-372,-514,,42,-37,,,-49,-100,-42,,,10,,,,,
,131,15,590,,729,702,804,,714,795,,,669,831,951,,,-12,,,,,
,-34,2,4081,,3040,3886,4718,,2482,3022,,,3733,3662,3908,,,-12,,,,,
,-74,-17,2171,,1050,1692,2585,,439,742,,,1339,1243,1347,,,5,,,,,
,1841,4,386,,126,254,507,,8,50,,,216,112,166,,,10,,,,,
,-2024,-12,-768,,-701,-927,-769,,-650,-819,,,-737,-799,-608,,,6,,,,,
,625,8,-4136,,-3074,-3972,-4906,,-2608,-3093,,,-3819,-3620,-3903,,,-16,,,,,
,281,6,-2221,,-1267,-1633,-2586,,-717,-840,,,-1427,-1250,-1534,,,3,,,,,
,-92,10,-333,,-249,-112,-463,,-60,-31,,,-3,-114,-252,,,-1,,,,,
,-436,-11,773,,727,948,967,,693,820,,,803,746,867,,,5,,,,,
,-1,-16,4080,,3200,3866,4955,,2780,3099,,,3730,3599,3990,,,1,,,,,
,-195,-2,1980,,1090,1438,2380,,659,755,,,1190,1249,1559,,,-1,,,,,
,387,10,370,,190,245,364,,68,39,,,127,49,-47,,,1,,,,,
,435,8,-350,,-380,-463,-639,,-523,-692,,,-830,-848,-998,,,1,,,,,
,-692,-17,-4035,,-3027,-3825,-4908,,-2567,-2989,,,-3593,-3538,-3900,,,6,,,,,
,812,21,-2254,,-1308,-1866,-2652,,-763,-841,,,-1355,-1224,-1335,,,-3,,,,,
,-368,-2,-488,,-407,-429,-558,,-208,-109,,,-190,-128,-201,,,3,,,,,
,1311,-1,500,,579,684,678,,544,704,,,661,761,754,,,-3,,,,,
,-1525,-19,4078,,3082,3917,4836,,2668,3033,,,3831,3605,3840,,,1,,,,,
,1401,4,2166,,1210,1650,2559,,773,827,,,1369,1265,1496,,,2,,,,,
,-1176,-2,297,,143,70,346,,121,45,,,169,129,286,,,-8,,,,,
,-186,-2,-795,,-639,-810,-900,,-611,-753,,,-732,-817,-739,,,3,,,,,
,554,-2,-4137,,-3150,-3828,-4736,,-2742,-3011,,,-3872,-3642,-4127,,,2,,,,,
,-849,1,-2045,,-1262,-1531,-2355,,-961,-769,,,-1775,-1256,-1466,,,-9,,,,,
,732,3,-150,,-31,-92,-397,,63,-45,,,79,-76,-163,,,9,,,,,
,2111,-2,634,,698,615,608,,738,731,,,1040,887,877,,,4,,,,,
,-2711,-2,3895,,3052,3631,4665,,2657,3030,,,3780,3584,3917,,,-4,,,,,
,1357,1,2036,,1080,1512,2399,,641,767,,,1247,1205,1474,,,-10,,,,,
,2526,,560,,259,343,435,,69,30,,,180,133,97,,,8,,,,,
,-3410,2,-720,,-661,-718,-740,,-581,-797,,,-704,-782,-787,,,-1,,,,,
,162,-1,-4158,,-3024,-3867,-4835,,-2539,-3043,,,-3701,-3608,-3853,,,-1,,,,,
,1157,-2,-2015,,-968,-1601,-2466,,-525,-747,,,-1298,-1260,-1539,,,-1,,,,,
,-1278,5,-167,,-95,-115,-348,,36,42,,,-268,-146,-246,,,1,,,,,
,-845,-5,701,,639,873,744,,558,743,,,835,833,869,,,16,,,,,
,1114,-31,3916,,2943,3792,4836,,2483,2968,,,3865,3664,3992,,,-9,,,,,
,-682,6,1873,,1025,1433,2566,,707,784,,,1393,1245,1525,,,-12,,,,,
,495,-6,478,,219,196,551,,36,69,,,-108,22,72,,,8,,,,,
,1417,24,-673,,-682,-810,-868,,-785,-787,,,-898,-827,-856,,,,,,,,
,-793,2,-4137,,-3145,-3770,-4908,,-2652,-3051,,,-3650,-3582,-4038,,,-6,,,,,
,-980,5,-2025,,-1135,-1589,-2522,,-661,-813,,,-1383,-1261,-1602,,,-11,,,,,
,102,-28,-531,,-215,-418,-560,,-20,-89,,,-55,-55,76,,,13,,,,,
,390,-15,731,,746,779,783,,729,831,,,818,802,875,,,7,,,,,
,-257,12,4170,,3184,3995,4914,,2592,3098,,,3727,3585,3850,,,1,,,,,
,-543,2,2180,,1180,1736,2602,,628,804,,,1272,1270,1483,,,-3,,,,,
,2272,-2,540,,238,353,534,,134,8,,,208,70,54,,,-2,,,,,
,-1737,30,-681,,-651,-879,-652,,-604,-798,,,-833,-855,-606,,,-3,,,,,
,-567,-30,-4026,,-3005,-3913,-4873,,-2524,-3015,,,-3809,-3678,-3970,,,-11,,,,,
,583,3,-2178,,-1275,-1669,-2645,,-734,-796,,,-1263,-1248,-1711,,,11,,,,,
,-474,3,-298,,-263,-77,-328,,-155,-4,,,-127,-34,-300,,,6,,,,,
,608,-16,710,,721,878,819,,676,789,,,790,855,931,,,-3,,,,,
,-675,,3932,,3082,3711,4757,,2594,3052,,,3763,3649,4146,,,7,,,,,
,1040,16,1998,,1153,1510,2595,,753,861,,,1282,1246,1650,,,-9,,,,,
,-698,,12,,-19,107,359,,-11,47,,,123,97,328,,,-11,,,,,
,1018,,-541,,-578,-580,-753,,-645,-783,,,-855,-834,-915,,,11,,,,,
,-783,-6,-3340,,-2743,-3518,-4585,,-2525,-2984,,,-3751,-3646,-4249,,,-3,,,,,
,-782,-12,-2138,,-1179,-1694,-2525,,-722,-837,,,-1297,-1217,-1529,,,1,,,,,
,7,2,-705,,-268,-401,-631,,-68,-75,,,-122,-109,-14,,,9,,,,,
,273,7,582,,582,738,742,,623,736,,,879,819,894,,,-3,,,,,
,161,-25,4067,,3045,3953,4952,,2550,3037,,,3771,3583,3751,,,3,,,,,
,-298,-1,2285,,1350,1799,2711,,821,882,,,1152,1146,1339,,,-2,,,,,
,330,19,420,,117,186,612,,-39,99,,,-78,66,181,,,-3,,,,,
,3431,-19,-791,,-711,-939,-842,,-644,-756,,,-739,-762,-746,,,3,,,,,
,-3622,-7,-4142,,-3091,-3883,-4901,,-2499,-3057,,,-3620,-3593,-3958,,,,,,,,
,204,25,-2044,,-1213,-1593,-2524,,-719,-884,,,-1291,-1176,-1493,,,2,,,,,
,-55,-18,-447,,-139,-245,-456,,-73,-44,,,-192,-77,-134,,,1,,,,,
,700,,526,,725,695,790,,670,802,,,675,782,825,,,-6,,,,,
,5,1,4121,,3091,3743,4863,,2405,3033,,,3600,3565,3950,,,10,,,,,
,-929,-17,2019,,1032,1489,2409,,580,732,,,1222,1236,1575,,,-5,,,,,
,683,4,434,,171,344,369,,173,25,,,246,93,-16,,,-11,,,,,
,-24,,-397,,-526,-546,-741,,-503,-734,,,-641,-815,-848,,,3,,,,,
,138,13,-3833,,-2904,-3788,-4665,,-2427,-2963,,,-3752,-3573,-3825,,,11,,,,,
,16,,-1924,,-1020,-1529,-2140,,-640,-733,,,-1598,-1297,-1314,,,-2,,,,,
,-623,-1,-374,,-109,-105,-356,,-13,10,,,-101,-170,-249,,,-4,,,,,
,-242,-12,532,,642,884,721,,613,785,,,1034,767,692,,,-4,,,,,
,479,,4191,,3235,4008,4881,,2657,3072,,,3850,3621,3915,,,8,,,,,
,714,13,2139,,1129,1488,2501,,650,699,,,1208,1301,1557,,,,,,,,
,-165,-13,338,,106,68,410,,-43,-75,,,141,80,24,,,-9,,,,,
,-68,,-798,,-773,-816,-880,,-725,-818,,,-695,-761,-805,,,3,,,,,
,-272,,-3877,,-3074,-3656,-4726,,-2684,-3015,,,-4037,-3559,-3733,,,-3,,,,,
,-121,-1,-2125,,-1215,-1592,-2459,,-695,-765,,,-1395,-1300,-1556,,,4,,,,,
,145,1,-620,,-146,-327,-539,,153,52,,,154,-99,-278,,,7,,,,,
,123,,922,,816,835,847,,754,835,,,898,815,792,,,-8,,,,,
,-549,-21,4044,,3070,3869,4843,,2543,3003,,,3607,3585,3999,,,3,,,,,
,6710,21,1897,,1053,1610,2438,,708,751,,,1367,1299,1567,,,2,,,,,
,-3744,-19,596,,346,316,498,,215,3,,,294,81,-16,,,-5,,,,,
,-3465,31,-752,,-709,-887,-737,,-780,-836,,,-802,-751,-660,,,3,,,,,
,-9,-29,-4369,,-3291,-4073,-4978,,-2828,-3094,,,-3902,-3582,-3721,,,-5,,,,,
,192,7,-2098,,-1149,-1591,-2545,,-627,-776,,,-1171,-1287,-1615,,,4,,,,,
,630,-21,-163,,54,65,-297,,42,69,,,-394,-163,-286,,,7,,,,,
,1185,,782,,827,1003,879,,794,848,,,599,763,767,,,-6,,,,,
,-1896,58,3933,,3018,3763,4900,,2455,3005,,,3856,3654,4119,,,6,,,,,
,171,-57,2013,,1003,1406,2419,,638,755,,,1403,1252,1533,,,7,,,,,
,552,13,462,,188,215,459,,213,43,,,169,75,-1,,,-14,,,,,
,-83,4,-720,,-669,-660,-759,,-568,-756,,,-752,-791,-989,,,-2,,,,,
,-90,-6,-4029,,-3201,-3765,-4886,,-2764,-3027,,,-3795,-3550,-3776,,,-3,,,,,
,111,-2,-2056,,-1114,-1625,-2391,,-720,-779,,,-1267,-1228,-1431,,,-7,,,,,
,-39,4,-400,,14,-181,-301,,-26,8,,,-243,-180,-93,,,5,,,,,
,-542,-4,931,,878,1010,884,,747,806,,,799,748,705,,,9,,,,,
,671,-9,4254,,3150,4085,4855,,2544,3078,,,3573,3632,3853,,,-4,,,,,
,1377,12,1991,,1042,1520,2480,,625,717,,,1352,1308,1547,,,-3,,,,,
,-945,-3,232,,7,12,335,,-68,-96,,,166,149,365,,,10,,,,,
,2606,-9,-746,,-740,-961,-843,,-726,-817,,,-905,-817,-653,,,-5,,,,,
,-3653,,-4275,,-3255,-3974,-4921,,-2578,-3032,,,-3631,-3612,-4085,,,-7,,,,,
,920,,-2265,,-1441,-1655,-2646,,-692,-833,,,-1199,-1233,-1589,,,-5,,,,,
,2464,-22,-357,,-114,-188,-343,,-75,-34,,,-355,-140,-45,,,20,,,,,
,-3505,29,726,,817,716,745,,762,765,,,946,790,720,,,-12,,,,,
,3997,-29,4044,,3086,3749,4716,,2529,3044,,,3678,3601,3883,,,2,,,,,
,-3663,,1998,,1095,1570,2382,,688,787,,,1385,1306,1400,,,6,,,,,
,1925,34,464,,195,384,409,,83,4,,,160,169,91,,,-13,,,,,
,-1694,-43,-611,,-635,-687,-725,,-639,-764,,,-897,-789,-707,,,2,,,,,
,78,,-3939,,-2941,-3864,-4763,,-2459,-2937,,,-3587,-3613,-4087,,,5,,,,,
,259,9,-2261,,-1234,-1773,-2470,,-768,-805,,,-1413,-1324,-1376,,,9,,,,,
,464,-5,-599,,-225,-239,-464,,-45,-34,,,-257,-167,-111,,,4,,,,,
,-899,-4,779,,699,991,859,,658,810,,,719,803,738,,,-3,,,,,
,542,9,4325,,3144,4036,5173,,2480,3029,,,3505,3627,4141,,,1,,,,,
,-231,9,1955,,1097,1434,2552,,594,727,,,1448,1361,1735,,,-3,,,,,
,3605,-9,216,,154,82,305,,129,28,,,325,124,53,,,-13,,,,,
,-3922,,-552,,-687,-739,-806,,-668,-725,,,-915,-871,-923,,,3,,,,,
,545,-9,-4240,,-3199,-3910,-4992,,-2646,-3080,,,-3668,-3597,-4078,,,3,,,,,
,-532,8,-2144,,-1190,-1655,-2578,,-587,-806,,,-1294,-1272,-1589,,,1,,,,,
,222,6,-223,,-66,-224,-496,,-32,-14,,,-262,-37,99,,,3,,,,,
,-349,-15,369,,555,606,673,,591,694,,,991,904,996,,,1,,,,,
,453,10,4001,,3077,3889,4743,,2620,3019,,,3882,3611,3736,,,-4,,,,,
,5763,-9,2307,,1230,1849,2689,,668,857,,,1086,1202,1403,,,4,,,,,
,-3410,,482,,141,326,584,,-35,63,,,-41,69,140,,,-8,,,,,
,-3104,6,-759,,-700,-963,-901,,-614,-783,,,-727,-795,-837,,,-3,,,,,
,179,-6,-4094,,-3058,-3993,-4975,,-2471,-3062,,,-3664,-3656,-4129,,,6,,,,,
,891,-21,-2347,,-1229,-1677,-2660,,-705,-802,,,-1560,-1352,-1486,,,8,,,,,
,1589,21,-516,,-145,-87,-438,,-59,2,,,-192,-134,-298,,,-4,,,,,
,-2107,-18,924,,799,1012,982,,594,750,,,861,820,793,,,-7,,,,,
,-131,18,4096,,3162,3842,4865,,2608,3000,,,3793,3598,4040,,,3,,,,,
,499,-1,1968,,1118,1480,2418,,775,765,,,1410,1277,1572,,,-4,,,,,
,1678,-27,401,,118,238,491,,-15,5,,,105,171,343,,,-1,,,,,
,13171,,-644,,-655,-612,-728,,-749,-748,,,-762,-721,-676,,,6,,,,,
,-3871,12,-4006,,-3120,-3788,-4748,,-2649,-3022,,,-3818,-3572,-3717,,,-8,,,,,
,-3639,-4,-2015,,-1236,-1671,-2434,,-822,-792,,,-1537,-1241,-1279,,,-1,,,,,
,-3815,1,-489,,-171,-343,-595,,-30,-7,,,-24,-104,-422,,,,,,,,
,-3639,43,737,,840,848,781,,895,819,,,973,758,502,,,-1,,,,,
,-239,-42,4315,,3254,4092,4991,,2722,3078,,,3829,3589,3884,,,7,,,,,
,865,-2,2182,,1260,1761,2542,,781,819,,,1284,1278,1514,,,11,,,,,
,-1003,1,504,,355,278,532,,254,97,,,285,75,-11,,,-1,,,,,
,359,,-684,,-633,-895,-899,,-422,-740,,,-574,-817,-801,,,-7,,,,,
,6460,2,-4045,,-3124,-3848,-4796,,-2616,-3014,,,-3781,-3639,-3827,,,6,,,,,
,-3517,-11,-1892,,-1138,-1410,-2366,,-799,-783,,,-1442,-1313,-1507,,,4,,,,,
,-2989,-2,-367,,-156,-189,-464,,15,-19,,,-141,-103,-75,,,-7,,,,,
,3039,10,352,,449,522,568,,507,702,,,758,821,747,,,-6,,,,,
,-1367,-9,3615,,2790,3513,4523,,2362,2970,,,3668,3687,4089,,,-9,,,,,
,-1684,-20,1792,,1017,1414,2244,,518,736,,,1221,1237,1451,,,8,,,,,
,-203,21,-50,,7,127,178,,-130,-71,,,-4,109,-37,,,-3,,,,,
,582,-1,-645,,-699,-723,-635,,-739,-846,,,-1060,-800,-681,,,11,,,,,
,-802,-20,-3817,,-3193,-3926,-4758,,-2635,-3078,,,-3608,-3608,-3878,,,-9,,,,,
,-15,17,-1373,,-918,-1447,-2244,,-681,-715,,,-1412,-1351,-1549,,,-2,,,,,
,166,-17,-515,,-270,-383,-553,,-52,-30,,,-127,-166,-306,,,15,,,,,
,-63,,-219,,286,624,626,,526,721,,,720,817,814,,,-12,,,,,
,33,,4622,,3188,4091,5160,,2522,3030,,,3642,3636,4254,,,-6,,,,,
,156,-1,2160,,1177,1494,2504,,759,796,,,1387,1295,1585,,,8,,,,,
,78,-12,278,,129,160,481,,26,64,,,168,117,76,,,8,,,,,
,3003,,-576,,-549,-629,-726,,-551,-712,,,-591,-752,-873,,,-5,,,,,
,-3676,12,-3700,,-2781,-3558,-4782,,-2418,-3012,,,-3605,-3541,-3911,,,8,,,,,
,1871,-12,-1935,,-988,-1425,-2316,,-706,-778,,,-1399,-1257,-1241,,,-2,,,,,
,-1870,16,-414,,-114,-192,-334,,-49,11,,,-272,-139,-63,,,-13,,,,,
,1268,-4,595,,664,640,534,,708,787,,,854,804,701,,,-9,,,,,
,2047,-12,4026,,3094,3758,4629,,2755,3064,,,3930,3562,3574,,,6,,,,,
,-3488,,2016,,1130,1622,2359,,803,770,,,1348,1213,1396,,,1,,,,,
,942,12,456,,167,215,437,,84,-26,,,58,100,157,,,11,,,,,
,886,1,-854,,-857,-968,-833,,-651,-863,,,-703,-742,-706,,,-1,,,,,
,-761,-17,-4196,,-3052,-3946,-4792,,-2555,-3010,,,-3973,-3673,-3928,,,7,,,,,
,-260,4,-2104,,-1176,-1663,-2632,,-640,-809,,,-1262,-1295,-1615,,,-9,,,,,
,1226,-17,-504,,-356,-216,-705,,-245,-81,,,-102,-122,-351,,,-6,,,,,
,-1370,17,609,,583,832,711,,360,810,,,480,765,726,,,,,,,,
,316,,3849,,2931,3680,4769,,2559,3004,,,3797,3700,4161,,,2,,,,,
,-358,-22,2046,,1182,1473,2462,,798,800,,,1435,1262,1505,,,9,,,,,
,17,5,393,,122,168,360,,-37,-18,,,190,113,108,,,-5,,,,,
,-231,,-615,,-642,-661,-806,,-740,-779,,,-837,-803,-966,,,9,,,,,
,615,17,-4015,,-3017,-3804,-4854,,-2600,-3010,,,-3876,-3637,-3894,,,-11,,,,,
,-1015,-17,-1912,,-1101,-1638,-2468,,-705,-778,,,-1501,-1325,-1353,,,-4,,,,,
,513,,-474,,-216,-397,-578,,-106,-44,,,-140,-98,-45,,,6,,,,,
,739,-2,564,,647,740,802,,625,763,,,860,773,604,,,,,,,,
,-709,-12,3902,,2980,3950,4829,,2443,3031,,,3516,3546,3921,,,-2,,,,,
,356,9,2073,,1133,1607,2502,,760,796,,,1372,1219,1431,,,3,,,,,
,-379,-8,425,,216,216,533,,140,60,,,208,52,28,,,-8,,,,,
,-190,,-1015,,-928,-918,-787,,-957,-741,,,-1069,-817,-594,,,,,,,,
,2390,,-4178,,-3089,-3853,-4783,,-2706,-3019,,,-3806,-3615,-3979,,,3,,,,,
,-2630,8,-2164,,-1279,-1532,-2496,,-779,-819,,,-1290,-1226,-1532,,,8,,,,,
,834,4,-392,,-186,-211,-475,,-2,-54,,,-17,-64,-36,,,-6,,,,,
,-493,10,836,,904,813,706,,916,847,,,1045,845,1003,,,8,,,,,
,1416,-9,4332,,3279,3905,5151,,2734,3077,,,3692,3572,4020,,,,,,,,
,-889,-27,2195,,1246,1626,2604,,812,739,,,1404,1245,1357,,,-3,,,,,
,380,27,368,,102,227,311,,,-46,,,219,143,101,,,-3,,,,,
,-1097,-2,-688,,-713,-840,-875,,-608,-770,,,-572,-775,-887,,,4,,,,,
,3278,-33,-4216,,-3151,-4050,-5006,,-2557,-3064,,,-3748,-3633,-3968,,,-4,,,,,
,-2438,7,-2255,,-1261,-1747,-2461,,-800,-810,,,-1690,-1312,-1401,,,1,,,,,
,-613,-4,-436,,-187,-247,-544,,-27,-38,,,-65,-78,-183,,,9,,,,,
,761,4,813,,796,988,775,,710,828,,,918,772,538,,,-14,,,,,
,-1340,14,4055,,3133,3959,4851,,2554,3111,,,3766,3687,4009,,,3,,,,,
,-41,-17,2121,,1049,1515,2500,,620,789,,,1294,1331,1721,,,11,,,,,
,1336,18,542,,340,218,392,,244,83,,,282,55,20,,,-5,,,,,
,-1034,,-741,,-690,-779,-745,,-667,-773,,,-910,-880,-788,,,-15,,,,,
