Packet Number (n), App Timestamp (us),Sensor Timestamp (us),Fp1 (uV),Disabled (uV),F3 (uV),Fz (uV),F4 (uV),Disabled (uV),C3 (uV),Cz (uV),C4 (uV),Disabled (uV),P3 (uV),Pz (uV),P4 (uV),Disabled (uV),Disabled (uV),Ref,AccX (mg),AccY (mg),AccZ (mg),Event A, Event B
8248,33410530,1134643079,-21390.22395,0.0,-13965.3081,-17041.45035,-14110.15845,0.0,2923.00005,6143.121,-187485.3888,0.0,-912.70695,2458.7235,6578.29785,0.0,0.0,-13.1865,0,0,0,0,0
,194,-3,3974,,3048,3635,4836,,2585,3009,,,3612,3493,3897,,,-9,,,,,
,-805,5,1857,,984,1318,2293,,714,770,,,1304,1226,1477,,,-13,,,,,
,2689,-12,227,,-20,102,272,,-57,-8,,,95,120,104,,,7,,,,,
,-2487,-7,-837,,-858,-906,-895,,-811,-804,,,-766,-788,-836,,,19,,,,,
,-85,6,-3983,,-3034,-3745,-4769,,-2585,-3025,,,-3594,-3537,-3909,,,-3,,,,,
,570,-2,-1990,,-1087,-1557,-2421,,-665,-787,,,-1225,-1192,-1351,,,,,,,,
,-857,11,-364,,-106,-193,-475,,108,-26,,,101,-49,-109,,,-5,,,,,
,1079,-30,735,,722,908,776,,652,755,,,858,802,771,,,-1,,,,,
,-203,1,3930,,2992,3731,4839,,2487,2999,,,3505,3479,3863,,,3,,,,,
,-330,-4,1940,,1068,1309,2379,,701,767,,,1291,1221,1466,,,3,,,,,
,-103,23,322,,160,48,350,,57,51,,,83,102,140,,,-8,,,,,
,3303,-20,-610,,-627,-738,-759,,-725,-727,,,-887,-808,-828,,,1,,,,,
,-3745,5,-3991,,-3131,-3684,-4903,,-2642,-3102,,,-3453,-3445,-3893,,,-1,,,,,
,1476,18,-2012,,-1134,-1484,-2480,,-659,-848,,,-1086,-1137,-1422,,,,,,,,
,-956,3,-201,,-29,-102,-285,,38,12,,,-133,-94,-63,,,5,,,,,
,151,-25,785,,771,802,907,,681,797,,,798,746,844,,,5,,,,,
,-398,,3983,,3040,3701,4828,,2542,3031,,,3622,3494,3797,,,-2,,,,,
,170,-13,2056,,1087,1512,2400,,729,808,,,1311,1214,1405,,,-13,,,,,
,-171,,486,,150,233,435,,83,27,,,175,94,79,,,-2,,,,,
,-264,13,-702,,-713,-850,-835,,-675,-785,,,-830,-840,-777,,,5,,,,,
,907,-1,-3952,,-2940,-3740,-4765,,-2543,-2987,,,-3598,-3512,-3802,,,-5,,,,,
,-681,1,-1870,,-1019,-1358,-2307,,-677,-761,,,-1287,-1221,-1413,,,-4,,,,,
,-199,-1,-336,,-157,-30,-401,,-137,-23,,,-238,-112,-138,,,11,,,,,
,1316,,831,,759,906,830,,652,751,,,793,845,853,,,,,,,,
,-577,,3912,,3083,3683,4801,,2667,3021,,,3656,3494,3803,,,7,,,,,
,1341,-12,2120,,1213,1398,2498,,796,821,,,1332,1146,1422,,,-2,,,,,
,-1920,5,461,,197,220,492,,42,24,,,56,107,168,,,-4,,,,,
,357,-5,-906,,-790,-719,-808,,-779,-794,,,-831,-733,-785,,,6,,,,,
,1718,,-3767,,-2988,-3531,-4638,,-2630,-2998,,,-3550,-3425,-3806,,,1,,,,,
,-2061,13,-1704,,-1009,-1347,-2237,,-591,-757,,,-1181,-1196,-1417,,,-5,,,,,
,-126,-1,-481,,-135,-283,-469,,45,-47,,,-38,-113,-112,,,5,,,,,
,85,-29,520,,618,726,637,,622,732,,,802,773,779,,,-14,,,,,
,196,16,3982,,2992,3762,4760,,2526,2997,,,3548,3480,3760,,,-1,,,,,
,151,-12,1996,,1105,1464,2436,,684,797,,,1158,1182,1416,,,13,,,,,
,-144,-5,468,,217,117,390,,105,3,,,190,137,161,,,-8,,,,,
,999,-4,-766,,-715,-928,-789,,-694,-779,,,-802,-736,-689,,,-1,,,,,
,-3,,-3950,,-3069,-3663,-4760,,-2635,-3017,,,-3656,-3481,-3732,,,-2,,,,,
,1909,14,-1833,,-1042,-1233,-2298,,-642,-771,,,-1238,-1209,-1486,,,8,,,,,
,-2567,21,-427,,-197,-132,-464,,-66,-8,,,-161,-162,-201,,,2,,,,,
,-661,-30,520,,607,728,674,,650,729,,,828,788,798,,,-9,,,,,
,308,,4121,,3133,3661,4799,,2706,2960,,,3689,3503,3823,,,4,,,,,
,2513,-2,2111,,1164,1448,2471,,716,816,,,1262,1210,1391,,,5,,,,,
,-1838,17,364,,150,268,458,,-40,45,,,63,123,125,,,-2,,,,,
,-681,-15,-818,,-784,-828,-908,,-756,-770,,,-813,-791,-810,,,3,,,,,
,596,,-4055,,-3112,-3810,-4943,,-2616,-2976,,,-3540,-3517,-3850,,,-1,,,,,
,305,,-2112,,-1156,-1609,-2516,,-667,-768,,,-1146,-1211,-1459,,,,,,,,
,-782,-2,-431,,-110,-159,-426,,-41,-20,,,-280,-140,-121,,,5,,,,,
,585,5,793,,748,914,796,,650,744,,,789,791,818,,,,,,,,
,840,-18,3928,,3036,3744,4833,,2571,3003,,,3667,3546,3828,,,-4,,,,,
,-1685,10,1835,,1012,1337,2366,,646,791,,,1173,1210,1554,,,4,,,,,
,-77,5,367,,136,95,400,,95,37,,,151,61,172,,,-2,,,,,
,897,-13,-713,,-722,-751,-767,,-694,-735,,,-881,-839,-857,,,,,,,,
,336,12,-4043,,-3171,-3694,-4924,,-2743,-3060,,,-3641,-3509,-3867,,,-10,,,,,
,-1186,5,-1901,,-1128,-1442,-2407,,-682,-823,,,-1089,-1162,-1354,,,-8,,,,,
,302,-26,-261,,-103,-159,-365,,45,-37,,,-25,-89,-103,,,15,,,,,
,30,17,776,,762,709,803,,738,757,,,784,750,815,,,-12,,,,,
,2620,-8,4029,,3108,3673,4796,,2639,3038,,,3598,3472,3789,,,,,,,,
,-1920,,1910,,1058,1455,2347,,683,803,,,1183,1204,1345,,,-1,,,,,
,-432,12,433,,200,246,457,,92,84,,,166,183,90,,,5,,,,,
,4345,-12,-395,,-594,-752,-702,,-671,-779,,,-794,-755,-765,,,4,,,,,
,-3502,12,-4036,,-3046,-3853,-4840,,-2573,-3032,,,-3517,-3480,-3813,,,-8,,,,,
,609,2,-1951,,-1081,-1459,-2401,,-656,-801,,,-1205,-1207,-1501,,,8,,,,,
,961,-8,-321,,-145,-39,-341,,-93,-10,,,-230,-85,-142,,,13,,,,,
,-1166,9,774,,684,890,829,,639,794,,,762,818,851,,,-9,,,,,
,-1972,1,4146,,3114,3704,4851,,2601,3036,,,3551,3440,3796,,,,,,,,
,7,-38,1847,,1085,1296,2375,,669,814,,,1159,1122,1330,,,8,,,,,
,2475,10,317,,182,214,430,,83,40,,,170,92,113,,,-5,,,,,
,1729,1,-564,,-603,-585,-676,,-669,-729,,,-765,-722,-764,,,5,,,,,
,-2211,-4,-3946,,-3075,-3645,-4827,,-2659,-3023,,,-3527,-3438,-3838,,,7,,,,,
,-1675,26,-1961,,-1135,-1490,-2391,,-676,-807,,,-1196,-1183,-1440,,,-1,,,,,
,671,-30,-445,,-243,-322,-468,,-40,-75,,,-62,-91,-49,,,-13,,,,,
,-1183,1,572,,647,744,698,,630,761,,,717,764,821,,,-20,,,,,
,1008,-13,4017,,3072,3826,4881,,2501,3058,,,3425,3437,3761,,,5,,,,,
,-634,,1842,,1014,1462,2387,,659,800,,,1284,1231,1440,,,15,,,,,
,530,,359,,107,101,398,,65,52,,,178,147,205,,,-5,,,,,
,10141,-1,-649,,-699,-951,-924,,-572,-775,,,-641,-722,-658,,,-3,,,,,
,-3852,10,-3984,,-3059,-3745,-4800,,-2583,-3016,,,-3611,-3527,-3870,,,7,,,,,
,-3634,,-1915,,-1112,-1314,-2334,,-805,-798,,,-1377,-1217,-1460,,,-7,,,,,
,-2521,3,-210,,-91,43,-330,,-90,33,,,-160,-150,-252,,,3,,,,,
,-532,1,571,,597,814,758,,593,783,,,743,710,694,,,,,,,,
,-40,-13,3236,,2741,3363,4528,,2505,2977,,,3527,3471,3783,,,-8,,,,,
,-217,9,1965,,1230,1340,2299,,894,801,,,1352,1218,1372,,,13,,,,,
,134,3,1915,,782,713,883,,346,137,,,205,105,19,,,-5,,,,,
,233,,-386,,-596,-604,-747,,-623,-763,,,-696,-750,-891,,,-8,,,,,
,170,5,-3980,,-3095,-3699,-4849,,-2668,-3024,,,-3595,-3432,-3793,,,12,,,,,
,295,-5,-1728,,-1109,-1503,-2423,,-711,-791,,,-1241,-1174,-1355,,,3,,,,,
,151,1,-266,,-88,-206,-504,,45,-18,,,-56,-92,-145,,,-7,,,,,
,-763,-14,1241,,926,1098,1006,,743,791,,,775,753,712,,,7,,,,,
,470,13,4360,,3113,3815,4869,,2606,2973,,,3689,3507,3798,,,3,,,,,
,-135,-3,1913,,1023,1331,2395,,657,747,,,1282,1259,1495,,,-11,,,,,
,-381,-27,292,,129,87,472,,45,2,,,154,141,226,,,4,,,,,
,127,10,-458,,-587,-710,-703,,-621,-774,,,-811,-813,-819,,,11,,,,,
,18,-13,-4037,,-3066,-3646,-4814,,-2594,-3032,,,-3613,-3511,-3898,,,,,,,,
,848,-1,-2076,,-1166,-1407,-2418,,-742,-773,,,-1294,-1212,-1476,,,-9,,,,,
,-1101,8,-166,,-106,-109,-266,,-69,49,,,-140,-113,-62,,,5,,,,,
,2671,14,678,,678,699,865,,672,818,,,860,807,911,,,-8,,,,,
,-2315,-21,3880,,3005,3620,4717,,2590,3032,,,3595,3444,3761,,,-1,,,,,
,260,21,2027,,1090,1441,2285,,686,789,,,1281,1223,1355,,,4,,,,,
,1187,-21,472,,201,288,541,,34,-10,,,85,110,149,,,12,,,,,
,-1833,20,-720,,-738,-821,-741,,-731,-806,,,-793,-774,-754,,,-4,,,,,
,620,-29,-3913,,-3008,-3770,-4808,,-2591,-3016,,,-3603,-3523,-3728,,,-1,,,,,
,66,-1,-2007,,-1164,-1481,-2429,,-730,-763,,,-1306,-1157,-1384,,,-10,,,,,
,-791,-1,-377,,-211,-124,-446,,-78,11,,,-197,-96,-203,,,-3,,,,,
,1089,26,689,,702,868,819,,640,790,,,805,778,793,,,5,,,,,
,-1066,-25,4040,,3158,3776,4918,,2666,3029,,,3663,3498,3862,,,-1,,,,,
,1104,1,1976,,1179,1370,2489,,834,743,,,1375,1175,1429,,,-3,,,,,
,-738,13,337,,126,138,432,,82,30,,,159,149,128,,,1,,,,,
,-294,-13,-756,,-780,-798,-895,,-689,-758,,,-805,-790,-953,,,-1,,,,,
,-1,9,-3835,,-2955,-3509,-4742,,-2582,-2925,,,-3780,-3572,-3946,,,,,,,,
,688,,-1759,,-989,-1350,-2286,,-649,-769,,,-1290,-1200,-1405,,,2,,,,,
,-5,7,-501,,-208,-340,-487,,-17,-55,,,63,-51,-20,,,-5,,,,,
,-589,-16,591,,654,743,719,,667,709,,,859,763,745,,,-3,,,,,
,1052,13,4071,,3010,3805,4848,,2549,2977,,,3630,3465,3698,,,18,,,,,
,1438,-14,1837,,994,1440,2331,,606,740,,,1302,1195,1374,,,-5,,,,,
,-2428,-6,194,,96,80,338,,-20,11,,,111,161,279,,,3,,,,,
,2362,6,-620,,-677,-957,-900,,-598,-777,,,-678,-695,-632,,,3,,,,,
,1386,1,-4009,,-2997,-3768,-4911,,-2473,-3025,,,-3463,-3471,-3822,,,-4,,,,,
,-2590,-20,-1847,,-952,-1270,-2348,,-619,-704,,,-1394,-1235,-1507,,,-17,,,,,
,-1524,-23,-322,,-172,-60,-419,,-134,10,,,-273,-139,-169,,,,,,,,
,407,43,646,,672,759,780,,612,766,,,837,765,763,,,3,,,,,
,334,-12,3887,,3039,3566,4823,,2617,3006,,,3707,3526,3847,,,-4,,,,,
,400,-8,1978,,1004,1350,2427,,623,778,,,1208,1189,1389,,,8,,,,,
,-1254,5,557,,182,369,626,,25,111,,,-7,30,-20,,,10,,,,,
,492,-5,-606,,-675,-699,-703,,-650,-745,,,-765,-818,-885,,,,,,,,
,-194,1,-4062,,-3078,-3748,-4771,,-2576,-3020,,,-3546,-3507,-3819,,,-2,,,,,
,377,-1,-1790,,-988,-1454,-2284,,-629,-756,,,-1388,-1258,-1366,,,-5,,,,,
,-205,19,-367,,-72,-227,-451,,7,-19,,,-98,-88,-100,,,-5,,,,,
,-108,-18,588,,761,843,785,,740,777,,,857,815,717,,,-7,,,,,
,496,-36,4333,,3199,3906,4978,,2687,3117,,,3538,3435,3653,,,9,,,,,
,-455,-1,2259,,1175,1475,2561,,698,783,,,1325,1261,1500,,,16,,,,,
,238,37,628,,270,175,589,,108,-14,,,196,142,292,,,-1,,,,,
,-444,2,-751,,-735,-836,-838,,-705,-815,,,-791,-741,-722,,,-17,,,,,
,-253,-35,-3827,,-3025,-3642,-4812,,-2635,-3044,,,-3554,-3462,-3881,,,2,,,,,
,321,-2,-1800,,-1070,-1240,-2231,,-762,-794,,,-1378,-1209,-1397,,,-2,,,,,
,2460,39,-226,,-100,-83,-299,,-31,10,,,-177,-92,-73,,,5,,,,,
,-2196,-28,830,,750,705,769,,720,743,,,836,793,865,,,7,,,,,
,1515,-10,3834,,3019,3594,4668,,2628,3004,,,3715,3494,3757,,,1,,,,,
,-1967,40,1660,,913,1300,2182,,629,764,,,1273,1183,1333,,,-17,,,,,
,559,-42,461,,123,195,370,,2,2,,,191,104,67,,,7,,,,,
,-206,-8,-585,,-634,-724,-680,,-699,-751,,,-921,-788,-781,,,,,,,,
,995,18,-4159,,-3104,-3785,-4765,,-2649,-2990,,,-3659,-3481,-3725,,,-1,,,,,
,-849,-9,-2738,,-1492,-1802,-2845,,-821,-827,,,-1075,-1095,-1407,,,-7,,,,,
,18,54,-782,,-356,-306,-577,,-134,-89,,,-41,-73,-179,,,7,,,,,
,-79,-55,1978,,1115,1333,1476,,780,836,,,715,734,793,,,11,,,,,
,655,2,4934,,3346,3939,5146,,2676,3043,,,3600,3442,3738,,,2,,,,,
,-623,-19,1607,,900,1108,2178,,698,763,,,1384,1183,1400,,,-12,,,,,
,9,,365,,101,96,413,,8,54,,,25,116,167,,,-7,,,,,
,1423,19,-391,,-552,-607,-616,,-669,-764,,,-955,-827,-877,,,14,,,,,
,-1863,53,-3667,,-2893,-3446,-4635,,-2594,-2993,,,-3661,-3503,-3852,,,,,,,,
,766,-75,-1714,,-984,-1331,-2210,,-703,-758,,,-1379,-1244,-1375,,,-2,,,,,
,111,2,-656,,-185,-366,-518,,-34,-24,,,-170,-124,-91,,,-4,,,,,
,393,,541,,687,748,753,,717,735,,,852,803,797,,,3,,,,,
,-428,3,4165,,3090,3832,4949,,2632,3014,,,3630,3527,3875,,,5,,,,,
,1557,-4,2001,,1073,1454,2449,,724,796,,,1305,1258,1399,,,-9,,,,,
,-1273,2,356,,104,95,413,,24,49,,,127,114,67,,,12,,,,,
,-38,-1,-640,,-651,-890,-799,,-592,-730,,,-740,-804,-852,,,3,,,,,
,-622,-11,-4232,,-3143,-3851,-4933,,-2573,-3047,,,-3505,-3479,-3878,,,-5,,,,,
,-438,-1,-2152,,-1263,-1486,-2489,,-768,-821,,,-1260,-1204,-1458,,,-15,,,,,
,258,10,-296,,-132,-87,-377,,-80,28,,,-267,-138,-187,,,3,,,,,
,1522,3,782,,827,900,895,,757,845,,,860,770,797,,,-3,,,,,
,1229,-12,4059,,3160,3648,4870,,2704,3016,,,3742,3500,3872,,,2,,,,,
,-2215,-1,1960,,1098,1380,2433,,665,766,,,1135,1208,1461,,,12,,,,,
,-703,11,358,,129,245,519,,-5,10,,,11,118,175,,,,,,,,
,367,-10,-663,,-716,-713,-774,,-712,-797,,,-764,-735,-766,,,-14,,,,,
,-289,5,-3862,,-2969,-3669,-4736,,-2585,-2967,,,-3520,-3461,-3880,,,8,,,,,
,267,7,-1903,,-1093,-1521,-2403,,-673,-802,,,-1189,-1219,-1439,,,10,,,,,
,-387,-13,-331,,-95,-212,-489,,8,-28,,,-101,-128,-122,,,-19,,,,,
,477,11,758,,799,894,761,,740,782,,,903,820,789,,,-6,,,,,
,-209,-1,4101,,3089,3797,4899,,2663,3010,,,3748,3555,3862,,,12,,,,,
,1335,-9,1993,,1044,1366,2450,,691,788,,,1216,1241,1528,,,7,,,,,
,-1992,3,283,,30,55,389,,-71,36,,,-51,46,186,,,,,,,,
,3125,-4,-809,,-810,-881,-861,,-808,-746,,,-917,-828,-752,,,-3,,,,,
,-2594,1,-3978,,-3051,-3619,-4792,,-2625,-2961,,,-3592,-3504,-3875,,,-7,,,,,
,-265,10,-1962,,-1144,-1412,-2360,,-710,-815,,,-1260,-1198,-1443,,,7,,,,,
,100,-2,-481,,-198,-240,-378,,-55,-40,,,-137,-102,-113,,,-5,,,,,
,-11,-28,734,,803,734,853,,712,784,,,818,783,850,,,-2,,,,,
,130,-1,4068,,3147,3733,4849,,2677,3040,,,3682,3505,3820,,,2,,,,,
,-197,-2,1995,,1090,1435,2382,,773,760,,,1333,1197,1349,,,-5,,,,,
,243,24,419,,175,282,462,,65,27,,,81,51,36,,,,,,,,
,319,,-650,,-695,-751,-756,,-731,-717,,,-835,-837,-835,,,7,,,,,
,1003,-1,-3758,,-2917,-3713,-4701,,-2511,-2974,,,-3523,-3474,-3791,,,3,,,,,
,-1320,-18,-1851,,-1025,-1392,-2247,,-700,-787,,,-1269,-1187,-1310,,,-4,,,,,
,280,17,-262,,-111,-89,-348,,-41,-37,,,-174,-167,-164,,,4,,,,,
,264,-19,837,,745,906,871,,670,807,,,808,756,693,,,-2,,,,,
,-169,-12,4001,,3104,3725,4904,,2627,3083,,,3542,3445,3819,,,-7,,,,,
,237,11,1911,,1102,1313,2418,,800,820,,,1239,1188,1480,,,10,,,,,
,-55,,236,,126,94,393,,52,42,,,79,90,103,,,3,,,,,
,-319,1,-716,,-709,-765,-803,,-746,-782,,,-848,-768,-891,,,-1,,,,,
,1259,-13,-3886,,-3041,-3588,-4815,,-2653,-3079,,,-3527,-3392,-3865,,,-2,,,,,
,-1686,25,-1900,,-1124,-1449,-2372,,-720,-819,,,-1253,-1131,-1340,,,-8,,,,,
,479,-12,-522,,-242,-301,-463,,-82,-17,,,-63,-72,-45,,,4,,,,,
,-379,1,556,,577,743,720,,574,764,,,780,798,812,,,3,,,,,
,1801,-13,3912,,2958,3657,4672,,2557,3000,,,3669,3512,3726,,,,,,,,
,-1519,1,2042,,1089,1465,2389,,688,771,,,1185,1161,1288,,,10,,,,,
,140,16,567,,266,283,593,,100,35,,,84,60,132,,,,,,,,
,-454,-5,-704,,-588,-780,-711,,-582,-747,,,-688,-740,-693,,,-15,,,,,
,186,-10,-4008,,-3001,-3719,-4853,,-2533,-3009,,,-3472,-3461,-3813,,,5,,,,,
,303,-2,-1838,,-1127,-1383,-2369,,-717,-760,,,-1288,-1225,-1438,,,-8,,,,,
,-129,13,-377,,-157,5,-267,,-79,-8,,,-210,-105,-96,,,-10,,,,,
,673,-12,753,,774,949,1022,,692,828,,,786,798,865,,,15,,,,,
,-301,12,4019,,3041,3673,4940,,2544,3047,,,3526,3450,3892,,,2,,,,,
,-380,-1,1940,,1024,1399,2437,,656,785,,,1133,1145,1483,,,9,,,,,
,458,-11,357,,144,202,493,,84,6,,,210,111,123,,,-2,,,,,
,-901,-22,-453,,-586,-599,-575,,-591,-759,,,-659,-716,-783,,,-3,,,,,
,1822,2,-3783,,-2940,-3614,-4678,,-2553,-3047,,,-3518,-3417,-3740,,,-2,,,,,
,-301,18,-1894,,-1039,-1490,-2330,,-672,-768,,,-1307,-1192,-1340,,,-2,,,,,
,-1034,-19,-594,,-296,-367,-639,,-120,-74,,,-86,-78,-156,,,-13,,,,,
,-420,-2,737,,686,792,687,,633,763,,,751,762,736,,,6,,,,,
,154,22,4089,,3073,3794,4856,,2572,3040,,,3480,3426,3708,,,10,,,,,
,293,2,1851,,1064,1379,2386,,752,805,,,1296,1143,1311,,,4,,,,,
,-335,-2,-82,,13,37,409,,68,88,,,174,120,164,,,6,,,,,
,1902,-18,-1346,,-905,-1001,-1095,,-760,-798,,,-876,-768,-780,,,-6,,,,,
,-1783,31,-3067,,-2584,-3364,-4614,,-2338,-3014,,,-3515,-3486,-3890,,,-6,,,,,
,658,-32,-1219,,-797,-1168,-2256,,-519,-795,,,-1151,-1155,-1514,,,-22,,,,,
,-647,15,-446,,-132,-316,-627,,4,-41,,,-20,-78,-168,,,13,,,,,
,5206,-16,1007,,865,794,845,,808,786,,,941,811,819,,,8,,,,,
,-3738,-10,3599,,2908,3502,4634,,2585,3044,,,3648,3490,3802,,,-8,,,,,
,-1075,-1,1890,,1032,1302,2308,,659,775,,,1197,1193,1434,,,1,,,,,
,929,-1,429,,145,170,415,,52,-9,,,151,162,128,,,6,,,,,
,-1308,2,-358,,-570,-651,-562,,-679,-790,,,-853,-809,-754,,,2,,,,,
,-10,13,-3821,,-3028,-3701,-4715,,-2626,-3032,,,-3560,-3432,-3698,,,-10,,,,,
,2263,,-2187,,-1229,-1590,-2526,,-754,-783,,,-1234,-1165,-1384,,,3,,,,,
,-1531,26,-408,,-215,-207,-459,,-118,-72,,,-240,-145,-201,,,-5,,,,,
,-1175,-28,583,,635,864,832,,588,747,,,774,788,757,,,7,,,,,
,324,-10,3953,,3035,3704,4883,,2540,3022,,,3534,3407,3776,,,9,,,,,
,78,10,2037,,1094,1352,2533,,697,833,,,1206,1151,1453,,,-1,,,,,
,1771,-10,261,,135,110,427,,85,70,,,188,131,149,,,-3,,,,,
,-2225,13,-765,,-697,-730,-783,,-705,-798,,,-778,-764,-707,,,-8,,,,,
,-24,-3,-3768,,-2947,-3466,-4680,,-2620,-3015,,,-3603,-3435,-3788,,,15,,,,,
,-4,1,-1827,,-1045,-1392,-2351,,-660,-750,,,-1180,-1127,-1367,,,-2,,,,,
,157,-12,-550,,-255,-378,-569,,-6,-29,,,-32,-60,-83,,,-9,,,,,
,2103,1,443,,584,626,645,,669,716,,,789,706,741,,,5,,,,,
,-1797,13,4032,,3037,3729,4836,,2620,3020,,,3563,3448,3691,,,-5,,,,,
,2318,-27,1893,,983,1380,2352,,662,740,,,1328,1245,1343,,,-3,,,,,
,2,13,398,,194,168,464,,58,27,,,126,82,144,,,-1,,,,,
,-2120,,-618,,-619,-835,-769,,-706,-731,,,-876,-802,-765,,,1,,,,,
,66,,-4081,,-3028,-3744,-4788,,-2641,-2953,,,-3658,-3500,-3851,,,7,,,,,
,-722,-2,-2079,,-1151,-1407,-2360,,-731,-773,,,-1321,-1224,-1439,,,12,,,,,
,517,2,-245,,-117,-46,-413,,-62,-28,,,-208,-102,-177,,,-14,,,,,
,-393,-11,805,,747,825,814,,676,764,,,815,767,721,,,-9,,,,,
,-174,-8,3867,,3028,3580,4746,,2699,2997,,,3749,3460,3808,,,12,,,,,
,331,19,1940,,1097,1331,2325,,757,767,,,1335,1198,1424,,,-3,,,,,
,1987,-31,472,,190,255,444,,35,38,,,53,37,100,,,5,,,,,
,-1877,,-550,,-580,-609,-650,,-624,-705,,,-838,-795,-819,,,-7,,,,,
,11057,11,-3902,,-2981,-3676,-4752,,-2504,-3023,,,-3462,-3414,-3736,,,11,,,,,
,-3719,-2,-1974,,-1110,-1492,-2267,,-688,-807,,,-1247,-1149,-1206,,,-8,,,,,
,-3878,3,-321,,-146,-207,-332,,-68,-8,,,-216,-147,-36,,,2,,,,,
,-3728,-1,801,,721,837,791,,642,755,,,853,789,690,,,-1,,,,,
,-132,-11,4057,,3015,3783,4817,,2509,3016,,,3565,3460,3673,,,5,,,,,
,733,1,1773,,912,1280,2304,,609,742,,,1263,1243,1396,,,-3,,,,,
,-652,10,197,,11,32,334,,-50,-44,,,114,149,155,,,-6,,,,,
,201,-11,-712,,-655,-834,-857,,-627,-807,,,-724,-812,-844,,,4,,,,,
,-44,12,-3981,,-2954,-3626,-4879,,-2532,-3011,,,-3495,-3482,-3928,,,3,,,,,
,-336,-12,-1983,,-1133,-1300,-2312,,-808,-766,,,-1451,-1231,-1461,,,-5,,,,,
,3652,,-179,,-81,-95,-256,,-51,46,,,-281,-157,-91,,,,,,,,
,-3391,1,710,,771,810,891,,750,845,,,901,765,806,,,-2,,,,,
,299,,3812,,3007,3637,4787,,2588,3047,,,3684,3500,3825,,,4,,,,,
,-71,-1,2071,,1105,1468,2464,,730,788,,,1206,1195,1482,,,-1,,,,,
,-239,12,471,,223,358,511,,47,29,,,-21,104,165,,,-1,,,,,
,1396,-12,-682,,-669,-692,-719,,-675,-780,,,-731,-731,-745,,,-2,,,,,
,-434,-4,-3823,,-2936,-3660,-4743,,-2488,-3036,,,-3455,-3448,-3768,,,-1,,,,,
,-856,-16,-1860,,-1032,-1400,-2358,,-622,-788,,,-1248,-1192,-1422,,,2,,,,,
,139,21,-412,,-158,-115,-378,,-58,-16,,,-191,-124,-174,,,4,,,,,
,42,-22,571,,630,906,845,,594,754,,,742,792,736,,,,,,,,
,8,27,3925,,3009,3695,4824,,2597,3030,,,3669,3521,3857,,,-1,,,,,
,478,-3,1925,,1111,1287,2395,,733,767,,,1268,1214,1501,,,1,,,,,
,-399,-22,459,,239,104,409,,153,22,,,178,36,71,,,5,,,,,
,-9,-1,-524,,-593,-691,-785,,-613,-767,,,-787,-826,-863,,,-1,,,,,
,-378,-11,-3845,,-2963,-3477,-4689,,-2614,-3035,,,-3628,-3477,-3860,,,-1,,,,,
,225,11,-1725,,-941,-1304,-2258,,-591,-770,,,-1193,-1231,-1451,,,-4,,,,,
,252,-7,-158,,3,-185,-338,,85,32,,,-140,-163,-123,,,-5,,,,,
,-587,-5,488,,589,654,731,,584,757,,,717,770,821,,,1,,,,,
,881,12,3863,,2957,3665,4797,,2475,3047,,,3482,3453,3769,,,4,,,,,
,-303,2,1998,,988,1423,2343,,629,760,,,1307,1237,1396,,,-4,,,,,
,-154,-12,406,,101,208,553,,43,-24,,,269,188,227,,,-5,,,,,
,-502,11,-459,,-511,-706,-591,,-590,-726,,,-860,-800,-667,,,,,,,,
,869,,-3846,,-2888,-3669,-4765,,-2503,-3016,,,-3587,-3488,-3731,,,,,,,,
,-577,-11,-1962,,-1064,-1382,-2423,,-641,-763,,,-1180,-1193,-1417,,,16,,,,,
,-47,11,-457,,-175,-158,-484,,-28,-6,,,-41,-84,-176,,,-16,,,,,
,4417,-11,644,,695,775,765,,717,757,,,920,841,768,,,9,,,,,
,-620,-1,3943,,3053,3569,4822,,2613,2985,,,3646,3505,3835,,,-2,,,,,
,-3617,14,1924,,1034,1274,2367,,681,771,,,1277,1219,1488,,,-4,,,,,
,-225,,177,,15,91,301,,-26,-14,,,84,106,170,,,-12,,,,,
,414,-1,-713,,-733,-703,-799,,-773,-770,,,-919,-808,-808,,,15,,,,,
,609,-14,-3956,,-3076,-3652,-4692,,-2672,-3060,,,-3653,-3440,-3715,,,2,,,,,
,1491,2,-1902,,-1025,-1393,-2190,,-613,-788,,,-1171,-1188,-1338,,,5,,,,,
,-2774,-15,-498,,-188,-249,-422,,-34,7,,,-131,-68,-51,,,-4,,,,,
,686,15,758,,739,855,830,,700,820,,,718,796,775,,,,,,,,
,-723,-21,3970,,3063,3790,4798,,2617,2987,,,3552,3468,3685,,,-10,,,,,
,551,10,1943,,1053,1320,2327,,687,723,,,1292,1171,1394,,,10,,,,,
,-387,-12,266,,69,-12,379,,18,-15,,,220,146,151,,,-10,,,,,
,6,24,-832,,-764,-938,-899,,-707,-824,,,-774,-731,-800,,,,,,,,
,1745,,-4058,,-3096,-3706,-4875,,-2682,-3008,,,-3760,-3534,-3882,,,,,,,,
,-1449,-16,-2015,,-1171,-1314,-2337,,-759,-764,,,-1311,-1237,-1491,,,5,,,,,
,42,-3,-148,,-17,-17,-196,,63,-10,,,-36,-104,-180,,,3,,,,,
,140,-1,836,,824,792,918,,790,781,,,896,762,749,,,-6,,,,,
,1066,17,3893,,3045,3605,4791,,2593,3013,,,3531,3453,3809,,,-3,,,,,
,-1143,-13,1927,,1063,1408,2384,,669,809,,,1212,1174,1421,,,7,,,,,
,-88,-18,364,,125,225,320,,10,-43,,,153,156,128,,,4,,,,,
,1016,-1,-726,,-658,-771,-846,,-605,-806,,,-605,-657,-676,,,-6,,,,,
,-1020,15,-4143,,-3089,-3819,-4841,,-2637,-3030,,,-3615,-3443,-3646,,,-1,,,,,
,59,-3,-2000,,-1121,-1510,-2420,,-662,-767,,,-1236,-1190,-1367,,,-1,,,,,
,645,3,-495,,-220,-244,-508,,10,-33,,,21,-127,-233,,,4,,,,,
,-135,-1,630,,698,920,791,,660,782,,,759,740,692,,,10,,,,,
,-518,-10,4027,,3117,3784,4916,,2629,3029,,,3558,3429,3832,,,-13,,,,,
,-26,10,2511,,1368,1563,2711,,791,853,,,1301,1221,1618,,,-4,,,,,
,6426,-10,822,,304,259,662,,43,89,,,51,84,216,,,1,,,,,
,-3804,-3,-1091,,-907,-989,-1032,,-811,-822,,,-906,-768,-840,,,8,,,,,
,-262,14,-4295,,-3192,-3736,-4997,,-2718,-3066,,,-3617,-3443,-3823,,,-7,,,,,
,-2389,7,-2062,,-1161,-1476,-2423,,-720,-786,,,-1204,-1206,-1468,,,-5,,,,,
,2510,-5,-365,,-160,-284,-395,,41,25,,,42,-43,-97,,,10,,,,,
,-2300,-13,591,,702,754,766,,800,783,,,890,778,766,,,9,,,,,
,64,-17,4044,,3172,3831,4903,,2732,3025,,,3701,3505,3831,,,-4,,,,,
,-367,26,2238,,1190,1669,2626,,708,830,,,1157,1161,1348,,,-16,,,,,
,858,-32,382,,199,298,560,,-21,91,,,-37,54,112,,,11,,,,,
,-849,22,-547,,-548,-747,-686,,-652,-734,,,-877,-808,-747,,,9,,,,,
,743,1,-4024,,-3090,-3851,-4933,,-2565,-3096,,,-3589,-3481,-3829,,,-10,,,,,
,2106,-2,-2148,,-1227,-1579,-2495,,-762,-855,,,-1315,-1289,-1499,,,-4,,,,,
,-2442,1,-331,,-85,-77,-395,,-26,17,,,-182,-199,-293,,,,,,,,
,-476,-1,661,,743,877,889,,703,794,,,790,771,746,,,13,,,,,
,1815,2,4000,,3083,3690,4942,,2630,3034,,,3605,3459,3825,,,2,,,,,
,-2060,-15,2019,,1099,1317,2402,,696,763,,,1172,1228,1515,,,-5,,,,,
,1516,-6,385,,156,191,423,,35,59,,,204,109,122,,,-3,,,,,
,-1400,4,-597,,-594,-615,-727,,-657,-735,,,-770,-810,-874,,,-8,,,,,
,-82,16,-3620,,-2806,-3460,-4588,,-2467,-2969,,,-3641,-3504,-3783,,,8,,,,,
,85,-33,-2009,,-1118,-1510,-2375,,-642,-774,,,-1148,-1140,-1235,,,-8,,,,,
,1960,16,-404,,-93,-220,-398,,64,46,,,4,-79,-13,,,5,,,,,
,1535,9,843,,868,944,983,,771,819,,,844,836,835,,,10,,,,,
,-2946,-13,4071,,3090,3873,4981,,2541,2989,,,3519,3531,3806,,,-4,,,,,
,-136,-11,1832,,985,1352,2414,,594,718,,,1226,1186,1409,,,-11,,,,,
,2444,12,98,,-50,-82,227,,-33,-17,,,100,69,114,,,-2,,,,,
,-2255,-8,-813,,-785,-986,-946,,-727,-782,,,-865,-830,-838,,,8,,,,,
,-685,8,-4063,,-3087,-3707,-4827,,-2616,-3017,,,-3667,-3495,-3833,,,-5,,,,,
,304,2,-1895,,-1093,-1231,-2239,,-686,-760,,,-1275,-1174,-1434,,,5,,,,,
,759,-12,-277,,-98,-84,-313,,-94,27,,,-143,-91,-153,,,5,,,,,
,-567,10,446,,605,607,675,,643,747,,,846,757,730,,,-6,,,,,
,2140,1,3939,,3004,3566,4754,,2606,2969,,,3676,3507,3878,,,3,,,,,
,900,2,1889,,986,1328,2327,,642,751,,,1261,1262,1511,,,-7,,,,,
,-3493,-15,278,,32,182,337,,-13,-26,,,91,112,70,,,-7,,,,,
,2799,13,-806,,-760,-841,-878,,-608,-779,,,-697,-720,-851,,,12,,,,,
,-401,2,-4101,,-3002,-3762,-4816,,-2506,-3015,,,-3523,-3462,-3822,,,3,,,,,
,-1851,-13,-1734,,-963,-1400,-2228,,-651,-764,,,-1406,-1265,-1429,,,-10,,,,,
,-391,,-320,,-145,-192,-445,,-105,2,,,-285,-190,-257,,,-4,,,,,
,-82,,503,,564,783,719,,540,725,,,834,783,661,,,8,,,,,
,460,,3925,,3021,3734,4921,,2533,2997,,,3575,3495,3822,,,-3,,,,,
,-215,,2225,,1190,1395,2474,,737,813,,,1191,1174,1500,,,8,,,,,
,152,,368,,204,111,453,,151,,,,227,104,180,,,-2,,,,,
,1883,18,-440,,-485,-608,-654,,-527,-787,,,-670,-751,-732,,,-7,,,,,
,1934,-40,-3342,,-2734,-3314,-4618,,-2519,-2991,,,-3584,-3410,-3716,,,6,,,,,
,-3516,2,-1758,,-1010,-1257,-2226,,-729,-753,,,-1192,-1100,-1344,,,-6,,,,,
,1820,20,-249,,-172,-134,-253,,-87,21,,,-217,-85,-49,,,3,,,,,
,-1385,-17,1149,,750,788,831,,688,800,,,761,765,746,,,21,,,,,
,-326,-3,4167,,2998,3745,4925,,2526,3000,,,3501,3396,3654,,,-15,,,,,
,1403,20,2193,,1049,1558,2510,,575,773,,,1098,1127,1297,,,-3,,,,,
,-2053,-8,847,,195,264,440,,6,40,,,83,70,50,,,-4,,,,,
,842,-24,-537,,-634,-884,-868,,-654,-784,,,-761,-793,-886,,,-8,,,,,
,-1167,-1,-3684,,-3026,-3764,-4878,,-2645,-3051,,,-3632,-3476,-3768,,,13,,,,,
,560,,-1589,,-974,-1287,-2267,,-675,-801,,,-1285,-1186,-1285,,,12,,,,,
,-365,13,776,,250,327,164,,67,56,,,-184,-113,-16,,,-3,,,,,
,1005,1,1692,,980,1139,1256,,724,865,,,792,778,852,,,-15,,,,,
,-582,-12,4571,,3255,3795,4971,,2717,3084,,,3723,3570,3911,,,-2,,,,,
,120,,2302,,1245,1440,2569,,836,846,,,1312,1149,1439,,,8,,,,,
,372,,599,,223,237,477,,106,13,,,95,24,4,,,2,,,,,
,-805,,-159,,-506,-535,-626,,-649,-764,,,-807,-774,-846,,,-2,,,,,
,110,-1,-3083,,-2623,-3285,-4391,,-2466,-2954,,,-3598,-3466,-3771,,,-6,,,,,
,460,14,-1768,,-959,-1356,-2264,,-672,-760,,,-1309,-1206,-1348,,,8,,,,,
,-527,-5,-403,,-168,-238,-442,,-95,-17,,,-108,-110,-91,,,3,,,,,
,257,-9,1000,,743,871,914,,645,732,,,720,760,756,,,-8,,,,,
,450,12,4294,,3103,3857,4963,,2605,3022,,,3592,3488,3755,,,-7,,,,,
,-377,,1774,,1031,1432,2368,,684,821,,,1339,1218,1412,,,-1,,,,,
,-300,-10,176,,172,93,357,,132,52,,,231,91,82,,,6,,,,,
,222,-1,-825,,-669,-934,-833,,-539,-764,,,-703,-786,-784,,,14,,,,,
,-168,2,-4005,,-2983,-3648,-4750,,-2500,-3012,,,-3650,-3563,-3836,,,-7,,,,,
,3346,-2,-2048,,-1037,-1228,-2342,,-667,-702,,,-1403,-1215,-1447,,,-5,,,,,
,5069,1,-728,,-167,-138,-480,,-97,8,,,-149,-66,-131,,,10,,,,,
,-3522,-23,188,,508,657,816,,459,730,,,766,809,924,,,-7,,,,,
,-3532,5,3418,,2810,3424,4634,,2417,2967,,,3567,3487,3867,,,3,,,,,
,-1756,-2,1240,,866,1181,2210,,604,722,,,1206,1169,1363,,,7,,,,,
,434,-1,40,,41,183,404,,-11,-5,,,49,73,90,,,-11,,,,,
,-290,21,-1516,,-961,-991,-1088,,-710,-805,,,-777,-736,-754,,,-9,,,,,
,4348,-20,-4673,,-3228,-3968,-4989,,-2558,-3060,,,-3554,-3419,-3657,,,5,,,,,
,-3392,17,-1836,,-951,-1443,-2275,,-470,-759,,,-1133,-1184,-1302,,,5,,,,,
,-560,-29,-1221,,-408,-469,-775,,-5,-61,,,10,-66,-157,,,4,,,,,
,493,10,-129,,420,644,521,,626,738,,,783,791,762,,,5,,,,,
,211,1,3982,,3050,3760,4987,,2613,3039,,,3524,3465,3845,,,-5,,,,,
,1437,-13,1587,,970,1195,2286,,650,756,,,1327,1269,1414,,,-7,,,,,
,-1681,27,-502,,-122,-222,94,,-27,-102,,,272,151,98,,,2,,,,,
,-216,-24,-701,,-698,-784,-738,,-706,-841,,,-788,-761,-782,,,11,,,,,
,385,,-4001,,-3098,-3596,-4875,,-2635,-3008,,,-3582,-3400,-3820,,,,,,,,
,-937,,-2308,,-1273,-1555,-2605,,-808,-863,,,-1235,-1192,-1411,,,-14,,,,,
,3192,13,-702,,-291,-387,-550,,-159,-68,,,9,-76,-12,,,9,,,,,
,-3273,-13,632,,749,753,860,,691,805,,,873,786,880,,,6,,,,,
,656,-1,3989,,3162,3821,4950,,2650,3075,,,3593,3485,3830,,,-9,,,,,
,-599,,1950,,1173,1575,2500,,786,800,,,1248,1205,1381,,,-2,,,,,
,192,-1,416,,238,275,443,,117,56,,,84,114,93,,,11,,,,,
,1384,2,-718,,-590,-840,-886,,-567,-716,,,-812,-832,-897,,,-14,,,,,
,-548,11,-4171,,-3116,-3880,-4925,,-2590,-3071,,,-3580,-3480,-3766,,,8,,,,,
,-474,-1,-2085,,-1166,-1529,-2441,,-714,-863,,,-1248,-1187,-1408,,,5,,,,,
,572,4,-606,,-294,-206,-569,,-96,-47,,,-212,-115,-172,,,-11,,,,,
,-1157,-4,415,,461,700,736,,565,742,,,760,798,847,,,1,,,,,
,1027,-33,3834,,2958,3584,4844,,2620,3060,,,3690,3498,3772,,,,,,,,
,-742,22,1862,,1080,1296,2388,,712,819,,,1170,1166,1450,,,-11,,,,,
,-91,-20,487,,273,335,602,,60,45,,,-80,81,149,,,8,,,,,
,182,-2,-625,,-603,-589,-700,,-687,-792,,,-782,-758,-841,,,7,,,,,
,70,24,-4108,,-3014,-3615,-4810,,-2616,-2973,,,-3538,-3425,-3829,,,-9,,,,,
,3537,-1,-2128,,-1082,-1453,-2305,,-761,-770,,,-1322,-1192,-1333,,,-1,,,,,
,-3801,-20,-324,,-65,-225,-382,,-20,-61,,,-21,-116,-143,,,7,,,,,
,790,,734,,730,868,854,,619,808,,,774,751,795,,,1,,,,,
,-581,20,4103,,3091,3881,4973,,2571,3081,,,3510,3461,3820,,,9,,,,,
,191,-2,2110,,1168,1539,2498,,748,831,,,1307,1228,1350,,,6,,,,,
,-359,-19,358,,211,124,388,,52,18,,,125,100,127,,,-13,,,,,
,4097,-11,-928,,-727,-898,-877,,-678,-820,,,-883,-807,-745,,,,,,,,
,-3489,-1,-4113,,-3068,-3706,-4898,,-2540,-3037,,,-3555,-3468,-3794,,,9,,,,,
,-364,,-2001,,-1169,-1425,-2530,,-647,-833,,,-1131,-1154,-1464,,,4,,,,,
,-20,13,-469,,-182,-225,-479,,24,-77,,,83,5,-22,,,-12,,,,,
,40,1,744,,832,854,946,,746,764,,,794,801,968,,,6,,,,,
,-639,-13,3924,,3067,3585,4822,,2602,2988,,,3568,3454,3909,,,-1,,,,,
,748,11,1814,,875,1232,2349,,561,720,,,1182,1194,1348,,,-11,,,,,
,-487,,191,,-87,43,237,,-82,-23,,,129,166,8,,,2,,,,,
,1468,,-778,,-842,-904,-919,,-714,-825,,,-785,-757,-858,,,-5,,,,,
,-1246,-10,-3984,,-3019,-3689,-4805,,-2496,-3003,,,-3610,-3519,-3810,,,14,,,,,
,-219,-1,-1888,,-935,-1411,-2295,,-526,-732,,,-1212,-1242,-1352,,,1,,,,,
,543,1,-328,,-39,-116,-346,,92,10,,,-56,-107,-149,,,-3,,,,,
,-921,,646,,718,946,784,,636,831,,,773,797,766,,,5,,,,,
,614,-17,3978,,3041,3774,4797,,2542,3045,,,3543,3478,3795,,,-3,,,,,
,106,28,1636,,912,1217,2251,,584,749,,,1232,1115,1398,,,-1,,,,,
,2106,-2,426,,171,162,557,,-25,86,,,-55,33,210,,,1,,,,,
,-2509,-9,-600,,-742,-774,-725,,-835,-786,,,-952,-741,-688,,,-5,,,,,
,2809,-21,-4242,,-3241,-3774,-4934,,-2822,-3089,,,-3635,-3469,-3922,,,-15,,,,,
,-2568,21,-1912,,-1130,-1399,-2273,,-784,-814,,,-1253,-1177,-1453,,,10,,,,,
,-321,-1,-396,,-161,-248,-418,,-78,17,,,-150,-82,-45,,,3,,,,,
,3687,-21,410,,564,540,613,,640,779,,,754,755,806,,,-6,,,,,
,-3179,22,3790,,2927,3595,4668,,2549,3020,,,3484,3435,3720,,,6,,,,,
,38,-1,1880,,997,1424,2305,,735,753,,,1214,1176,1297,,,10,,,,,
,-151,-19,355,,98,110,331,,142,-66,,,238,145,180,,,-11,,,,,
,5319,19,-618,,-632,-810,-754,,-582,-770,,,-777,-781,-710,,,2,,,,,
,-3570,,-3958,,-2922,-3718,-4719,,-2409,-2961,,,-3333,-3385,-3702,,,1,,,,,
,-2006,-2,-1822,,-923,-1269,-2188,,-570,-723,,,-1227,-1193,-1306,,,-4,,,,,
,1072,-28,-198,,-15,109,-228,,-80,33,,,-351,-139,-135,,,-6,,,,,
,-1149,,548,,631,790,742,,595,729,,,883,830,741,,,5,,,,,
,-97,12,3940,,2957,3516,4715,,2508,2925,,,3688,3499,3807,,,-8,,,,,
,314,-1,1861,,957,1223,2334,,572,758,,,1162,1137,1404,,,-4,,,,,
,560,,153,,57,119,335,,-69,53,,,21,58,76,,,16,,,,,
,-903,-11,-591,,-558,-593,-692,,-602,-721,,,-825,-802,-894,,,10,,,,,
,533,11,-3600,,-2778,-3469,-4632,,-2342,-2957,,,-3435,-3527,-3924,,,-6,,,,,
,-238,-12,-1823,,-975,-1359,-2314,,-518,-797,,,-1093,-1134,-1339,,,-15,,,,,
,-389,,-540,,-64,-226,-355,,73,-7,,,-112,-81,-49,,,-6,,,,,
,3321,12,795,,938,924,845,,885,848,,,886,769,732,,,15,,,,,
,-1732,-1,4043,,3095,3868,4938,,2569,3059,,,3571,3488,3855,,,-4,,,,,
,-1603,-2,1713,,933,1402,2401,,539,777,,,1180,1208,1441,,,4,,,,,
,4425,3,277,,47,45,381,,-96,-7,,,70,116,219,,,-5,,,,,
,-3870,-5,-788,,-807,-1010,-860,,-772,-806,,,-772,-773,-769,,,3,,,,,
,10605,6,-3943,,-3041,-3652,-4806,,-2648,-2999,,,-3655,-3490,-3852,,,9,,,,,
,-3840,-2,-1798,,-1018,-1193,-2251,,-747,-761,,,-1469,-1252,-1395,,,-5,,,,,
,-3790,-10,-487,,-141,-117,-381,,4,2,,,-182,-118,-117,,,-5,,,,,
,-2402,14,663,,720,766,748,,800,753,,,967,837,820,,,-2,,,,,
,3525,-19,4099,,3197,3724,4935,,2758,3053,,,3731,3543,3870,,,3,,,,,
,-3696,-7,1928,,1087,1408,2445,,741,775,,,1267,1227,1404,,,5,,,,,
,-686,,254,,54,229,430,,-83,-1,,,58,98,107,,,10,,,,,
,1937,8,-735,,-815,-787,-793,,-838,-817,,,-888,-782,-797,,,-10,,,,,
,676,-7,-4130,,-3181,-3839,-4887,,-2688,-3072,,,-3520,-3448,-3800,,,-17,,,,,
,3129,-15,-2259,,-1233,-1664,-2553,,-769,-834,,,-1281,-1189,-1336,,,11,,,,,
,-3766,15,-1050,,-419,-460,-747,,-155,-87,,,-169,-117,-156,,,3,,,,,
,-2049,-5,536,,655,905,952,,656,797,,,816,738,693,,,-11,,,,,
,-102,-4,4697,,3230,3968,5213,,2599,3073,,,3446,3403,3758,,,11,,,,,
,-251,-11,2714,,1299,1520,2537,,738,825,,,1067,1115,1397,,,-7,,,,,
,1640,7,259,,112,30,262,,138,47,,,229,124,177,,,10,,,,,
,-1412,22,-576,,-532,-652,-734,,-559,-729,,,-751,-820,-860,,,,,,,,
,254,-8,-3319,,-2692,-3349,-4621,,-2409,-2989,,,-3464,-3494,-3877,,,7,,,,,
,1064,-1,-1991,,-1092,-1428,-2467,,-581,-789,,,-1073,-1168,-1409,,,-15,,,,,
,-806,10,-454,,-261,-374,-622,,-74,-67,,,-28,-49,-75,,,1,,,,,
,3051,,859,,769,725,829,,645,768,,,591,747,817,,,6,,,,,
,-496,-10,3768,,2961,3575,4669,,2500,3002,,,3470,3452,3771,,,-1,,,,,
,-2073,-4,1675,,926,1371,2231,,557,764,,,1169,1197,1350,,,-2,,,,,
,-21,4,381,,157,280,512,,9,33,,,144,136,130,,,-2,,,,,
,641,2,-778,,-625,-785,-756,,-628,-795,,,-704,-735,-778,,,1,,,,,
,-678,-2,-3861,,-2838,-3675,-4708,,-2424,-2998,,,-3580,-3491,-3750,,,,,,,,
,3194,-18,-1834,,-997,-1291,-2193,,-585,-731,,,-1317,-1258,-1385,,,-4,,,,,
,-3816,17,-358,,-174,-94,-452,,-5,-33,,,-75,-97,-127,,,11,,,,,
,3116,-18,664,,667,802,747,,653,737,,,844,838,747,,,-5,,,,,
,-2874,19,3833,,3002,3638,4841,,2528,3011,,,3541,3435,3795,,,-8,,,,,
,-43,-20,1837,,1078,1344,2445,,695,866,,,1128,1160,1519,,,-5,,,,,
,35,19,385,,219,197,407,,87,62,,,48,65,110,,,13,,,,,
,-850,-44,-648,,-654,-700,-774,,-721,-808,,,-902,-803,-802,,,-2,,,,,
,2623,27,-3961,,-3085,-3618,-4778,,-2702,-3051,,,-3526,-3375,-3710,,,,,,,,
,-2744,2,-2123,,-1179,-1471,-2356,,-758,-821,,,-1230,-1172,-1348,,,10,,,,,
,1082,-3,-432,,-139,-253,-365,,9,-46,,,-107,-140,-180,,,-2,,,,,
,3377,1,575,,605,751,783,,639,769,,,803,795,719,,,4,,,,,
,-3764,-1,3730,,2855,3689,4748,,2448,3048,,,3502,3495,3720,,,-13,,,,,
,-660,-1,1897,,1005,1371,2349,,674,800,,,1254,1213,1381,,,1,,,,,
,275,-8,300,,137,42,326,,111,-10,,,218,125,178,,,3,,,,,
,592,8,-741,,-690,-962,-906,,-579,-785,,,-816,-796,-711,,,-3,,,,,
,728,2,-4044,,-3084,-3771,-4877,,-2622,-3039,,,-3674,-3534,-3826,,,-5,,,,,
,700,-11,-1850,,-1013,-1241,-2205,,-649,-761,,,-1158,-1173,-1379,,,5,,,,,
,-2026,1,-140,,15,75,-182,,27,33,,,-27,-68,-104,,,1,,,,,
,218,-1,696,,728,824,905,,613,755,,,808,805,872,,,4,,,,,
,267,,3804,,3005,3577,4836,,2562,3018,,,3596,3464,3894,,,-1,,,,,
,-78,11,1741,,1047,1328,2319,,737,783,,,1298,1163,1318,,,7,,,,,
,3683,-11,204,,83,147,209,,54,39,,,156,145,47,,,-1,,,,,
,-3848,1,-631,,-723,-774,-859,,-673,-799,,,-808,-719,-793,,,-10,,,,,
,75,,-4001,,-3028,-3780,-4880,,-2520,-3059,,,-3563,-3492,-3849,,,5,,,,,
,-91,,-2138,,-1177,-1614,-2435,,-714,-808,,,-1371,-1250,-1395,,,-1,,,,,
,1776,-37,-430,,-232,-228,-362,,-181,-35,,,-302,-160,-128,,,7,,,,,
,-2225,10,896,,867,1012,905,,689,770,,,801,773,705,,,-8,,,,,
,5746,-13,4171,,3213,3924,4956,,2629,3043,,,3614,3493,3856,,,1,,,,,
,-3553,8,2101,,1185,1498,2582,,699,791,,,1308,1223,1589,,,1,,,,,
,-1541,15,506,,325,195,544,,148,75,,,153,81,206,,,-4,,,,,
,261,-20,-644,,-593,-773,-751,,-574,-721,,,-824,-840,-900,,,-1,,,,,
,530,36,-3997,,-3060,-3614,-4814,,-2574,-2995,,,-3652,-3501,-3895,,,3,,,,,
,-615,1,-1977,,-1163,-1428,-2364,,-696,-758,,,-1301,-1204,-1418,,,,,,,,
,3397,-17,-355,,-180,-242,-437,,-6,14,,,-44,-108,-139,,,7,,,,,
,-3466,-19,613,,713,690,765,,688,795,,,895,727,796,,,-6,,,,,
,-363,5,3961,,3081,3703,4865,,2537,2980,,,3536,3472,3877,,,-5,,,,,
,484,-7,2166,,1171,1584,2515,,655,766,,,1200,1246,1461,,,-5,,,,,
,18,3,494,,148,273,480,,-15,5,,,156,145,201,,,8,,,,,
,180,11,-738,,-751,-885,-873,,-758,-824,,,-753,-745,-664,,,-3,,,,,
,7964,-10,-3934,,-2928,-3753,-4852,,-2485,-3022,,,-3596,-3497,-3784,,,-2,,,,,
,-3823,-2,-1818,,-912,-1308,-2356,,-447,-693,,,-1142,-1180,-1486,,,3,,,,,
,-3577,-1,-349,,-74,-3,-354,,95,20,,,-40,-115,-263,,,6,,,,,
,-871,1,619,,613,828,812,,641,755,,,804,820,755,,,-1,,,,,
,671,-11,3771,,2874,3553,4731,,2562,2995,,,3508,3462,3788,,,-8,,,,,
,48,17,1375,,821,1048,2114,,638,708,,,1250,1177,1431,,,7,,,,,
,404,-5,494,,215,237,529,,46,14,,,112,70,152,,,,,,,,
,-1012,-26,300,,-263,-262,-333,,-654,-740,,,-845,-795,-750,,,5,,,,,
,95,14,-3358,,-2827,-3401,-4650,,-2633,-2992,,,-3648,-3473,-3830,,,-8,,,,,
,429,2,-1970,,-1163,-1507,-2501,,-726,-788,,,-1217,-1161,-1360,,,1,,,,,
,1968,9,-407,,-142,-282,-499,,9,16,,,-104,-95,-52,,,1,,,,,
,-3174,-15,606,,735,773,732,,809,830,,,866,775,737,,,11,,,,,
,-23,5,3685,,2914,3701,4711,,2574,3022,,,3504,3432,3663,,,-8,,,,,
,-122,-22,1574,,911,1322,2261,,642,727,,,1189,1162,1363,,,-9,,,,,
,8617,,441,,144,153,480,,66,6,,,132,144,220,,,8,,,,,
,-3826,-1,-590,,-666,-805,-723,,-607,-761,,,-773,-702,-674,,,5,,,,,
,-3570,19,-4108,,-3051,-3710,-4802,,-2559,-3012,,,-3608,-3479,-3817,,,3,,,,,
,9802,4,-2188,,-1279,-1539,-2541,,-798,-908,,,-1151,-1110,-1425,,,-6,,,,,
,-3577,-19,-359,,-253,-188,-472,,-176,-128,,,-84,-76,-155,,,-12,,,,,
,-3523,-3,617,,678,843,849,,534,823,,,684,803,871,,,3,,,,,
,-3496,40,3962,,3066,3756,5011,,2452,3091,,,3529,3470,3971,,,9,,,,,
,18,-34,2136,,1203,1601,2614,,681,893,,,1294,1195,1450,,,2,,,,,
,-76,-5,262,,154,275,433,,16,70,,,2,19,-24,,,,,,,,
,1538,-1,-667,,-678,-700,-710,,-665,-781,,,-992,-862,-890,,,-4,,,,,
,-1592,4,-4050,,-3053,-3717,-4798,,-2505,-3038,,,-3552,-3479,-3793,,,-5,,,,,
,1850,11,-2365,,-1269,-1687,-2543,,-637,-777,,,-1170,-1180,-1298,,,-1,,,,,
,-2149,-27,-344,,-164,-216,-445,,33,-23,,,-98,-86,-29,,,-3,,,,,
,1164,19,915,,736,875,821,,721,718,,,859,882,855,,,-1,,,,,
,-1003,-6,3924,,2971,3609,4745,,2541,2900,,,3680,3587,3854,,,-3,,,,,
,654,-10,2135,,1221,1407,2435,,780,753,,,1326,1195,1409,,,8,,,,,
,-972,11,392,,180,39,370,,85,-6,,,175,99,177,,,9,,,,,
,382,-14,-672,,-651,-748,-807,,-645,-753,,,-751,-792,-868,,,-7,,,,,
,777,13,-3859,,-2925,-3489,-4793,,-2553,-2933,,,-3564,-3483,-3927,,,-1,,,,,
,-129,4,-1726,,-995,-1225,-2300,,-666,-711,,,-1292,-1234,-1463,,,-2,,,,,
,-698,-2,-285,,-104,-160,-422,,-1,-50,,,-85,-113,-108,,,-7,,,,,
,338,-13,587,,719,687,764,,757,744,,,845,794,849,,,17,,,,,
,6076,11,3933,,3055,3647,4782,,2569,3049,,,3523,3453,3814,,,7,,,,,
,-3718,-27,1919,,1068,1440,2395,,629,809,,,1129,1128,1347,,,-16,,,,,
,-2667,18,358,,131,230,485,,,8,,,38,58,164,,,-5,,,,,
,233,-4,-597,,-629,-824,-830,,-605,-791,,,-708,-735,-829,,,9,,,,,
,3410,3,-4107,,-3079,-3873,-4911,,-2531,-3071,,,-3509,-3458,-3875,,,-2,,,,,
,-2850,-16,-1977,,-1146,-1490,-2402,,-717,-831,,,-1438,-1230,-1379,,,3,,,,,
,3552,-6,-486,,-289,-224,-554,,-163,-47,,,-242,-83,-163,,,-11,,,,,
,-1575,1,470,,541,702,678,,599,735,,,857,828,763,,,-5,,,,,
,-2416,1,4069,,3108,3751,4902,,2681,3097,,,3705,3452,3785,,,17,,,,,
,2592,,1863,,1071,1336,2443,,741,802,,,1190,1140,1452,,,-6,,,,,
,-2816,14,105,,45,9,270,,110,3,,,177,140,130,,,-3,,,,,
,1870,4,-857,,-792,-812,-907,,-765,-814,,,-933,-779,-838,,,10,,,,,
,5083,-18,-3899,,-3018,-3557,-4732,,-2710,-3048,,,-3684,-3512,-3905,,,-8,,,,,
,-3725,-1,-1707,,-1003,-1323,-2209,,-673,-751,,,-1220,-1206,-1400,,,2,,,,,
,-2829,-11,-392,,-165,-255,-345,,-102,-7,,,-144,-95,30,,,-3,,,,,
,-250,28,748,,751,867,868,,560,781,,,749,787,853,,,2,,,,,
,-115,-17,4135,,3066,3825,4874,,2507,3015,,,3621,3531,3830,,,5,,,,,
,289,2,2021,,981,1456,2448,,601,734,,,1208,1239,1478,,,-5,,,,,
,73,-2,296,,99,104,390,,102,1,,,154,89,168,,,4,,,,,
,3147,2,-750,,-647,-886,-861,,-470,-694,,,-727,-813,-844,,,-1,,,,,
,-3076,-2,-4088,,-3033,-3761,-4989,,-2493,-2994,,,-3500,-3501,-3907,,,-11,,,,,
,-108,-10,-2234,,-1227,-1550,-2634,,-707,-865,,,-1247,-1160,-1444,,,-2,,,,,
,-287,10,-393,,-203,-180,-506,,-88,-83,,,-200,-93,-136,,,9,,,,,
,3533,6,675,,716,794,776,,675,737,,,790,753,785,,,6,,,,,
,525,-17,3865,,2964,3556,4815,,2540,2989,,,3604,3510,3925,,,-10,,,,,
,-2512,9,1947,,1022,1365,2454,,588,763,,,1173,1213,1452,,,2,,,,,
,978,19,443,,211,321,502,,17,47,,,116,177,133,,,23,,,,,
,-2349,-25,-650,,-609,-626,-784,,-669,-731,,,-782,-755,-865,,,-5,,,,,
,2281,-19,-3867,,-2900,-3486,-4653,,-2529,-2913,,,-3641,-3503,-3898,,,-12,,,,,
,3698,32,-1856,,-975,-1339,-2212,,-609,-687,,,-1312,-1315,-1460,,,5,,,,,
,-3806,-37,-554,,-184,-249,-481,,-18,-7,,,-160,-146,-169,,,-3,,,,,
,-1375,5,455,,568,752,648,,628,735,,,737,724,632,,,-13,,,,,
,2246,-3,3898,,2984,3741,4887,,2567,3002,,,3598,3485,3739,,,4,,,,,
,-3517,-1,2060,,1085,1366,2453,,712,771,,,1267,1218,1472,,,-1,,,,,
,217,20,389,,156,-14,385,,68,-33,,,218,67,186,,,-2,,,,,
,172,-3,-807,,-785,-901,-852,,-800,-832,,,-851,-760,-707,,,13,,,,,
,-178,4,-4023,,-3075,-3615,-4831,,-2729,-3054,,,-3856,-3516,-3718,,,-6,,,,,
,2387,1,-1903,,-1021,-1257,-2286,,-678,-756,,,-1310,-1229,-1414,,,5,,,,,
,-1773,2,-126,,-17,-115,-386,,91,41,,,21,-85,-125,,,7,,,,,
,-1008,-23,525,,626,618,714,,695,797,,,873,716,800,,,3,,,,,
,2424,6,3814,,2998,3634,4821,,2623,3006,,,3555,3414,3796,,,-9,,,,,
,-2247,19,2112,,1124,1525,2502,,784,763,,,1288,1231,1373,,,-4,,,,,
,302,-25,292,,-40,156,404,,-65,-49,,,79,210,205,,,3,,,,,
,673,-1,-646,,-728,-847,-793,,-728,-801,,,-866,-778,-790,,,-2,,,,,
,358,,-3900,,-2911,-3833,-4862,,-2498,-2998,,,-3392,-3430,-3813,,,-4,,,,,
,-1064,1,-2051,,-1068,-1464,-2478,,-720,-777,,,-1241,-1172,-1355,,,-2,,,,,
,1445,2,-485,,-128,-40,-456,,-115,50,,,-170,-106,-182,,,,,,,,
,-1101,-1,743,,764,914,748,,694,799,,,824,830,686,,,1,,,,,
,1104,4,4092,,3129,3737,4785,,2712,3021,,,3651,3483,3815,,,-5,,,,,
,-318,-7,2093,,1197,1381,2429,,814,775,,,1202,1128,1442,,,-4,,,,,
,685,2,262,,153,124,417,,115,38,,,85,67,100,,,5,,,,,
,-1458,12,-621,,-615,-690,-683,,-661,-740,,,-865,-790,-788,,,,,,,,
,3506,-21,-3972,,-3061,-3603,-4835,,-2571,-3028,,,-3588,-3453,-3886,,,2,,,,,
,-572,9,-2167,,-1217,-1572,-2614,,-628,-807,,,-1162,-1170,-1443,,,3,,,,,
,3601,-2,-526,,-166,-361,-473,,-55,-18,,,-68,-122,-90,,,7,,,,,
,-3469,,807,,779,801,807,,556,796,,,683,723,802,,,4,,,,,
,-1556,2,4007,,3090,3800,4860,,2531,3049,,,3522,3455,3723,,,-8,,,,,
,-1778,-19,1978,,1115,1515,2451,,684,794,,,1261,1222,1429,,,-9,,,,,
,217,19,397,,244,228,533,,119,30,,,153,122,191,,,1,,,,,
,315,-19,-805,,-716,-838,-663,,-609,-767,,,-705,-709,-635,,,,,,,,
,-397,17,-4002,,-3024,-3677,-4784,,-2511,-2993,,,-3565,-3387,-3703,,,6,,,,,
,95,-17,-1910,,-1061,-1295,-2326,,-624,-751,,,-1295,-1235,-1507,,,-5,,,,,
,1830,2,-602,,-309,-175,-524,,-129,-36,,,-72,-109,-174,,,7,,,,,
,-1726,-1,1046,,908,1035,1018,,800,860,,,695,660,634,,,9,,,,,
,-411,16,4105,,3135,3639,4858,,2676,3055,,,3624,3436,3813,,,-7,,,,,
,2553,,1863,,1012,1249,2248,,602,733,,,1212,1219,1491,,,5,,,,,
,-387,,341,,106,246,467,,-127,18,,,-5,125,171,,,1,,,,,
,-2167,-7,-665,,-683,-687,-748,,-810,-768,,,-827,-742,-776,,,-6,,,,,
,6431,8,-3861,,-2989,-3605,-4806,,-2620,-3013,,,-3581,-3452,-3749,,,1,,,,,
,-3649,-18,-1993,,-1054,-1514,-2410,,-561,-777,,,-1122,-1159,-1297,,,-6,,,,,
,-2605,10,-625,,-184,-278,-506,,38,-40,,,-82,-96,-151,,,1,,,,,
,14,-10,605,,654,886,837,,648,803,,,634,683,652,,,2,,,,,
,96,,4068,,3038,3756,4740,,2633,3046,,,3605,3472,3667,,,-4,,,,,
,-234,-24,2002,,1097,1432,2438,,754,843,,,1245,1235,1485,,,5,,,,,
,16,24,262,,160,38,280,,125,35,,,204,115,79,,,11,,,,,
,52,-5,-684,,-578,-790,-843,,-549,-756,,,-673,-761,-1011,,,-9,,,,,
,-192,-3,-4165,,-3113,-3721,-4936,,-2697,-3083,,,-3659,-3439,-3715,,,-1,,,,,
,575,19,-1636,,-973,-1166,-2009,,-712,-803,,,-1321,-1205,-1377,,,6,,,,,
,-383,,339,,61,80,-7,,-87,17,,,-128,-109,-84,,,-6,,,,,
,82,-34,162,,442,439,434,,552,737,,,840,743,825,,,6,,,,,
,-98,25,3494,,2901,3553,4677,,2548,3061,,,3495,3406,3802,,,-4,,,,,
,230,-2,2141,,1145,1477,2273,,805,826,,,1245,1169,1439,,,3,,,,,
,-467,,433,,146,221,419,,63,-39,,,139,104,161,,,-2,,,,,
,374,,-774,,-701,-851,-702,,-607,-824,,,-743,-740,-650,,,2,,,,,
,46,-24,-3976,,-2967,-3810,-4853,,-2432,-3054,,,-3378,-3413,-3828,,,-4,,,,,
,-312,,-2281,,-1265,-1623,-2552,,-561,-824,,,-1092,-1183,-1449,,,-8,,,,,
,812,25,-397,,-182,-177,-462,,-279,,,,-315,-143,-58,,,-7,,,,,
,-996,-43,885,,720,914,813,,599,804,,,620,723,845,,,20,,,,,
,548,37,3853,,2976,3664,4781,,2748,3027,,,3664,3483,3643,,,-1,,,,,
,-186,-40,2020,,1017,1325,2380,,662,815,,,1268,1195,1282,,,-5,,,,,
,920,,383,,190,177,416,,30,38,,,-70,38,150,,,-4,,,,,
,-1122,38,-776,,-605,-679,-722,,-788,-804,,,-929,-800,-775,,,,,,,,
,1024,-31,-3878,,-2895,-3440,-4651,,-2408,-3004,,,-3236,-3351,-3932,,,11,,,,,
,-900,31,-1900,,-1015,-1358,-2360,,-664,-746,,,-1167,-1150,-1303,,,-4,,,,,
,-274,-35,-45,,44,-163,-294,,-198,30,,,-363,-52,88,,,-2,,,,,
,144,,553,,542,586,560,,758,774,,,988,757,734,,,10,,,,,
,564,19,3807,,2924,3602,4730,,2596,3051,,,3495,3456,3794,,,-11,,,,,
,-408,-31,1776,,1016,1380,2344,,754,748,,,1226,1176,1266,,,,,,,,
,1863,28,470,,156,204,461,,-15,-49,,,106,79,9,,,5,,,,,
,-1390,-4,-694,,-635,-841,-775,,-633,-770,,,-682,-755,-713,,,2,,,,,
,-353,-12,-4196,,-3083,-3807,-4867,,-2565,-3056,,,-3428,-3489,-3743,,,-16,,,,,
,98,,-1577,,-865,-1122,-2162,,-699,-773,,,-1723,-1240,-1398,,,4,,,,,
,3557,-1,-249,,30,-42,-508,,365,-48,,,256,-111,-390,,,3,,,,,
,-3473,-10,436,,743,674,601,,714,765,,,734,786,927,,,-3,,,,,
,-241,20,3793,,2885,3476,4799,,2137,2994,,,3479,3498,3977,,,-9,,,,,
,-79,-20,1683,,776,1161,2260,,582,744,,,1417,1218,1403,,,12,,,,,
,-12,-3,419,,160,292,547,,-36,80,,,-224,114,240,,,4,,,,,
,2019,19,-693,,-717,-679,-780,,-623,-791,,,-694,-722,-750,,,1,,,,,
,-1250,13,-3927,,-3015,-3691,-4926,,-2459,-3067,,,-3348,-3468,-3869,,,-5,,,,,
,3428,-43,-2004,,-1055,-1494,-2404,,-716,-819,,,-1236,-1168,-1165,,,2,,,,,
,-3591,25,-232,,-92,-128,-373,,-92,7,,,-142,-151,-108,,,-12,,,,,
,-364,-13,628,,730,832,671,,875,819,,,978,738,442,,,2,,,,,
,3709,12,3893,,3039,3805,4844,,2680,3077,,,3422,3438,3742,,,6,,,,,
,-3874,-20,2148,,1032,1485,2626,,399,834,,,886,1144,1422,,,5,,,,,
,1555,18,100,,17,-53,334,,-74,17,,,243,134,382,,,-13,,,,,
,-1929,-1,-853,,-842,-893,-872,,-693,-809,,,-742,-809,-883,,,7,,,,,
,4493,-27,-4001,,-3057,-3636,-4819,,-2585,-3020,,,-3621,-3555,-3947,,,3,,,,,
,-3338,33,-2001,,-1045,-1343,-2453,,-587,-837,,,-1333,-1175,-1493,,,-1,,,,,
,-1031,-32,-523,,-261,-228,-407,,-230,-50,,,-107,-10,13,,,13,,,,,
,423,20,345,,562,602,743,,795,756,,,1109,847,896,,,-1,,,,,
,3203,-21,4412,,3378,3873,4940,,2543,3106,,,2822,3398,3819,,,-8,,,,,
,-3645,21,2304,,1157,1571,2573,,669,853,,,1276,1150,1191,,,-8,,,,,
,1268,-22,474,,177,362,630,,-187,36,,,320,174,175,,,-3,,,,,
,-1623,17,-630,,-618,-690,-654,,-520,-712,,,-837,-834,-764,,,3,,,,,
,786,-11,-3677,,-2812,-3651,-4701,,-2458,-2993,,,-3598,-3583,-4023,,,8,,,,,
,1821,-17,-2210,,-1173,-1614,-2548,,-565,-792,,,-1144,-1227,-1384,,,7,,,,,
,-2302,-1,-462,,-238,-280,-649,,35,-56,,,-115,-149,-188,,,-13,,,,,
,-485,-1,710,,690,854,776,,415,743,,,703,816,817,,,5,,,,,
,245,21,3725,,2912,3566,4741,,2608,2996,,,3696,3531,3943,,,5,,,,,
,2423,-9,1898,,988,1120,2199,,752,682,,,1443,1229,1396,,,-7,,,,,
,-2190,-13,366,,264,141,383,,263,5,,,50,46,-99,,,-3,,,,,
,2668,15,-734,,-673,-724,-903,,-686,-787,,,-1058,-807,-624,,,2,,,,,
,-2364,-3,-3642,,-2936,-3479,-4743,,-2699,-3036,,,-3350,-3438,-3944,,,-9,,,,,
,520,4,-1758,,-912,-1323,-2353,,-550,-765,,,-1149,-1108,-1321,,,-1,,,,,
,-701,-11,-204,,-116,-178,-305,,-70,29,,,-290,-147,96,,,-4,,,,,
,49,-4,535,,619,615,620,,758,742,,,955,794,881,,,3,,,,,
,597,15,3742,,2766,3577,4769,,2542,2997,,,3594,3508,3893,,,10,,,,,
,307,-13,1817,,984,1414,2278,,669,762,,,1092,1183,1457,,,4,,,,,
,-56,-1,449,,261,384,717,,-34,63,,,54,69,-6,,,,,,,,
,456,-1,-421,,-661,-757,-598,,-1240,-823,,,-965,-817,-731,,,4,,,,,
,-830,-17,-4359,,-3215,-3859,-4926,,-2529,-3025,,,-3686,-3523,-3782,,,-1,,,,,
,-310,,-1996,,-1030,-1359,-2465,,-584,-745,,,-1342,-1221,-1559,,,-10,,,,,
,4112,,-370,,-62,-70,-517,,45,-3,,,-97,-106,-227,,,-8,,,,,
,-2988,18,741,,853,877,812,,783,823,,,740,673,713,,,13,,,,,
,8800,-16,3953,,2991,3554,4787,,2635,2972,,,3645,3441,3754,,,5,,,,,
,-3536,-4,1841,,849,1251,2413,,567,753,,,1415,1227,1552,,,-12,,,,,
,-3657,-1,455,,220,299,484,,55,63,,,56,168,104,,,-3,,,,,
,-3193,19,-761,,-758,-683,-735,,-764,-737,,,-841,-749,-718,,,11,,,,,
,3557,-18,-3834,,-2893,-3542,-4659,,-2557,-2949,,,-3615,-3500,-3847,,,4,,,,,
,-3248,-1,-1977,,-1034,-1513,-2440,,-570,-745,,,-1007,-1172,-1414,,,-7,,,,,
,6500,2,-373,,-165,-253,-462,,-78,26,,,-266,-158,-74,,,5,,,,,
,-3841,-13,538,,619,744,699,,539,729,,,510,758,771,,,,,,,,
,500,37,3930,,3024,3727,4718,,2778,2963,,,3695,3489,3626,,,-5,,,,,
,-3748,-37,1546,,850,1179,2100,,673,721,,,1383,1274,1493,,,8,,,,,
,1475,29,571,,211,202,537,,-166,5,,,130,114,113,,,-6,,,,,
,-904,-17,-636,,-637,-802,-781,,-619,-764,,,-910,-879,-853,,,-2,,,,,
,-166,4,-4123,,-3153,-3786,-5016,,-2572,-3101,,,-3470,-3419,-3812,,,-5,,,,,
,2268,-3,-2128,,-1200,-1439,-2443,,-721,-855,,,-1222,-1125,-1243,,,1,,,,,
,3234,-13,-183,,33,-8,-332,,53,-21,,,-57,-23,-79,,,20,,,,,
,-3568,12,626,,713,783,808,,757,754,,,1069,833,781,,,-7,,,,,
,-1170,-1,4144,,3246,3794,4934,,2677,3091,,,3510,3424,3695,,,-4,,,,,
,546,-5,2390,,1316,1591,2571,,825,850,,,1117,1152,1481,,,-18,,,,,
,-1077,6,-9,,-116,61,252,,-103,3,,,82,69,154,,,1,,,,,
,-280,3,-1513,,-1143,-1196,-1223,,-852,-850,,,-617,-734,-687,,,1,,,,,
,1925,-19,-3597,,-2991,-3691,-4742,,-2431,-3001,,,-3732,-3469,-3725,,,9,,,,,
,-2021,27,-1669,,-1105,-1421,-2264,,-1154,-821,,,-1525,-1182,-1199,,,4,,,,,
,1106,-16,-474,,-173,-120,-422,,-35,-56,,,75,-54,-359,,,2,,,,,
,-494,-11,533,,603,775,632,,761,710,,,1012,831,871,,,-4,,,,,
,1833,,4033,,3149,3769,4923,,2627,3001,,,3662,3533,3939,,,9,,,,,
,-2115,28,2219,,1336,1573,2688,,663,897,,,1096,1070,1460,,,,,,,,
,-208,-16,658,,522,329,407,,390,103,,,245,87,-202,,,6,,,,,
,1694,-1,-796,,-677,-706,-845,,-553,-671,,,-849,-815,-820,,,-11,,,,,
,-1612,14,-4131,,-3072,-3587,-4933,,-2541,-2982,,,-3597,-3537,-4037,,,,,,,,
,116,-9,-2159,,-1218,-1398,-2353,,-776,-772,,,-1397,-1304,-1556,,,,,,,,
,977,-6,-402,,-132,-233,-283,,-23,-32,,,-233,-196,-125,,,-2,,,,,
,-941,5,653,,695,714,707,,750,766,,,876,795,793,,,-4,,,,,
,-274,-4,3992,,3025,3763,4880,,2577,3002,,,3535,3443,3788,,,17,,,,,
,745,2,1953,,950,1459,2382,,523,751,,,1156,1179,1543,,,-11,,,,,
,-621,-1,217,,84,106,341,,188,-4,,,390,188,7,,,-9,,,,,
,2594,17,-719,,-671,-862,-716,,-776,-749,,,-880,-707,-631,,,14,,,,,
,1718,-30,-4018,,-3246,-3794,-4783,,-3004,-3009,,,-3727,-3461,-3667,,,-4,,,,,
,-3211,23,-1918,,-1064,-1478,-2637,,-635,-813,,,-1549,-1245,-1462,,,-8,,,,,
,-755,-16,-485,,-220,-241,-597,,18,-111,,,-47,-91,-73,,,-7,,,,,
,32,12,659,,709,779,820,,659,768,,,692,786,777,,,2,,,,,
,4002,-1,3978,,3087,3613,4842,,2693,2997,,,3744,3488,3703,,,6,,,,,
,-3766,,2012,,1129,1257,2163,,888,781,,,1286,1183,1497,,,4,,,,,
,-650,-8,366,,161,223,465,,124,46,,,145,96,125,,,-2,,,,,
,968,-5,-573,,-638,-582,-642,,-766,-762,,,-704,-732,-771,,,4,,,,,
,-272,-4,-3564,,-2819,-3512,-4697,,-2502,-2998,,,-3506,-3432,-3759,,,-17,,,,,
,-567,-15,-1978,,-998,-1519,-2451,,-604,-766,,,-1203,-1192,-1345,,,-2,,,,,
,412,20,-670,,-466,-430,-625,,-350,-91,,,-82,-50,-2,,,13,,,,,
,6458,-1,830,,819,890,744,,752,788,,,788,754,598,,,1,,,,,
,-3132,3,3881,,3025,3685,4695,,2711,2986,,,3610,3446,3671,,,-4,,,,,
,-1818,-20,1836,,792,1235,2334,,569,731,,,1201,1179,1436,,,9,,,,,
,-1693,16,475,,310,203,564,,-132,90,,,-93,63,185,,,-1,,,,,
,2403,-15,-984,,-851,-981,-919,,-416,-783,,,-552,-818,-870,,,1,,,,,
,-3121,-1,-3950,,-3103,-3614,-4768,,-2607,-3009,,,-3522,-3492,-3931,,,,,,,,
,406,,-1975,,-1200,-1342,-2498,,-877,-770,,,-1275,-1208,-1324,,,-4,,,,,
,612,2,-247,,-35,-50,-377,,-31,6,,,-518,-125,-119,,,-10,,,,,
,208,1,447,,642,747,977,,669,764,,,849,783,737,,,10,,,,,
,-227,-1,3927,,3030,3555,4726,,2653,2991,,,3778,3507,3840,,,,,,,,
,2296,-1,1867,,1101,1378,2245,,642,780,,,1143,1136,1389,,,8,,,,,
,-2652,-2,107,,-25,223,345,,-143,46,,,-92,25,-2,,,-3,,,,,
,222,3,-805,,-676,-774,-788,,-641,-751,,,-879,-831,-815,,,-10,,,,,
,-357,-3,-4086,,-3013,-3716,-4664,,-2513,-2979,,,-3603,-3465,-3660,,,4,,,,,
,1138,1,-2089,,-1219,-1546,-2446,,-847,-797,,,-1346,-1177,-1229,,,10,,,,,
,4007,4,-328,,12,-18,-408,,215,58,,,51,-90,-542,,,4,,,,,
,-3601,-2,572,,557,857,767,,520,742,,,830,855,920,,,-3,,,,,
,1292,18,4108,,3108,3766,4898,,2428,2990,,,3578,3588,3938,,,-6,,,,,
,19,-10,1873,,1038,1319,2280,,856,777,,,1337,1219,1308,,,-3,,,,,
,-3255,-9,461,,187,168,457,,146,107,,,32,6,43,,,6,,,,,
,292,-28,-698,,-687,-750,-794,,-767,-770,,,-862,-809,-783,,,,,,,,
,1145,,-4214,,-3174,-3758,-4990,,-2653,-3132,,,-3593,-3468,-3690,,,-7,,,,,
,1072,,-1903,,-1068,-1387,-2295,,-707,-837,,,-1305,-1159,-1303,,,-9,,,,,
,-2010,-6,-136,,67,-92,-369,,280,16,,,358,-6,-295,,,11,,,,,
,11,32,541,,607,654,711,,666,754,,,819,826,935,,,11,,,,,
,1077,-26,4018,,3140,3757,4890,,2494,3058,,,3310,3440,3815,,,-17,,,,,
,-1293,27,2139,,1115,1562,2519,,670,796,,,1301,1211,1411,,,2,,,,,
,1691,-27,512,,261,234,402,,117,49,,,210,96,97,,,-1,,,,,
,-2030,26,-885,,-688,-888,-785,,-506,-740,,,-667,-822,-756,,,5,,,,,
,1350,-24,-4088,,-3101,-3842,-4965,,-2516,-3032,,,-3559,-3472,-3871,,,12,,,,,
,-1220,-18,-1936,,-1101,-1426,-2475,,-939,-838,,,-1387,-1163,-1275,,,-2,,,,,
,560,36,16,,-34,40,-302,,-152,-20,,,-45,-59,-203,,,-8,,,,,
,-769,-20,607,,500,752,788,,748,749,,,953,814,789,,,,,,,,
,337,,3622,,2857,3455,4674,,2549,2974,,,3547,3496,4003,,,16,,,,,
,311,-6,1962,,1142,1362,2452,,807,839,,,1134,1110,1384,,,-11,,,,,
,67,-10,395,,259,249,478,,138,56,,,13,-2,-17,,,-9,,,,,
,-180,,-633,,-797,-763,-1005,,-966,-818,,,-912,-813,-817,,,5,,,,,
,462,10,-4143,,-3091,-3744,-4854,,-2665,-3057,,,-3521,-3506,-3722,,,-7,,,,,
,-612,,-1683,,-928,-1360,-2292,,-431,-750,,,-1031,-1144,-1500,,,-4,,,,,
,4399,9,-668,,-112,-286,-550,,-28,-18,,,-277,-71,79,,,10,,,,,
,-3734,-19,205,,533,700,684,,526,707,,,598,770,814,,,15,,,,,
,-369,,4277,,3140,3966,5112,,2713,3028,,,3592,3446,3679,,,-5,,,,,
,-205,,2205,,1042,1520,2686,,453,785,,,1231,1194,1434,,,-12,,,,,
,1364,16,576,,73,107,556,,22,42,,,117,86,291,,,-2,,,,,
,-1713,-21,-884,,-807,-1033,-1033,,-707,-763,,,-802,-705,-769,,,-5,,,,,
,96,-13,-4576,,-3204,-3892,-5102,,-2658,-3086,,,-3655,-3429,-3845,,,15,,,,,
,1734,4,-1515,,-853,-1219,-2328,,-421,-802,,,-996,-1176,-1688,,,-1,,,,,
,-774,30,-323,,-309,-200,-509,,-121,-54,,,-99,-78,-109,,,-3,,,,,
,3663,-17,140,,388,544,577,,462,740,,,661,733,806,,,-6,,,,,
,-3521,-18,3685,,3043,3623,4783,,2575,3101,,,3529,3423,3746,,,-5,,,,,
,-791,19,1699,,1015,1335,2310,,682,805,,,1155,1127,1456,,,2,,,,,
,2669,,384,,212,340,447,,176,-31,,,208,137,78,,,9,,,,,
,-2261,,-286,,-418,-511,-682,,-530,-777,,,-687,-749,-937,,,-6,,,,,
,-675,-2,-3632,,-3018,-3644,-4693,,-2691,-2993,,,-3637,-3486,-3599,,,-1,,,,,
,690,-29,-1943,,-1031,-1380,-2264,,-399,-672,,,-1223,-1206,-1386,,,1,,,,,
,4287,,-144,,80,49,-278,,-143,53,,,-163,-113,-350,,,12,,,,,
,-2891,3,780,,812,987,847,,638,789,,,677,754,922,,,5,,,,,
,975,47,4080,,3072,3827,5010,,2677,3029,,,3706,3413,3768,,,-13,,,,,
,-2701,18,1642,,822,1177,2335,,489,737,,,1233,1230,1702,,,2,,,,,
,510,-59,592,,424,244,527,,198,57,,,147,178,28,,,-6,,,,,
,-156,,-859,,-780,-875,-1020,,-698,-775,,,-866,-785,-768,,,,,,,,
,-170,-10,-4378,,-3372,-3819,-5099,,-2776,-3103,,,-3476,-3439,-3930,,,-1,,,,,
,189,17,-2143,,-1232,-1538,-2501,,-761,-897,,,-1295,-1158,-1312,,,-5,,,,,
,-693,-3,-409,,-161,-232,-330,,-68,-65,,,-258,-89,-18,,,-4,,,,,
,407,,554,,691,661,715,,739,719,,,949,834,885,,,19,,,,,
,7034,-5,4000,,3113,3759,4821,,2737,3018,,,3668,3500,3801,,,3,,,,,
,-1631,5,2040,,1175,1605,2522,,715,800,,,1387,1172,1185,,,-11,,,,,
,-1242,-1,513,,225,307,542,,-88,59,,,-81,61,303,,,3,,,,,
,-3841,-33,-525,,-609,-733,-757,,-559,-719,,,-792,-811,-871,,,1,,,,,
,4420,-5,-4018,,-2995,-3768,-4908,,-2542,-2980,,,-3550,-3474,-3816,,,-1,,,,,
,-3610,5,-1854,,-959,-1357,-2380,,-534,-717,,,-1304,-1264,-1562,,,-11,,,,,
,-1303,21,-606,,-246,-195,-627,,86,3,,,-12,-145,-275,,,8,,,,,
,1076,-18,512,,513,691,745,,394,745,,,619,782,723,,,4,,,,,
,123,-3,3921,,3125,3569,4746,,2908,3015,,,3785,3451,3556,,,-4,,,,,
,-1078,4,1842,,723,1187,2390,,229,714,,,1145,1206,1557,,,6,,,,,
,217,-2,191,,-112,103,443,,-224,11,,,-314,65,296,,,-7,,,,,
,1940,-11,-711,,-644,-672,-797,,-707,-788,,,-818,-757,-813,,,2,,,,,
,-2751,63,-3874,,-2966,-3624,-4865,,-2487,-3058,,,-3560,-3463,-3801,,,-5,,,,,
,-145,-64,-2053,,-1117,-1579,-2527,,-656,-837,,,-1191,-1182,-1300,,,,,,,,
,455,13,-558,,-325,-451,-711,,-16,-57,,,23,-72,-37,,,3,,,,,
,-327,-12,511,,660,647,638,,723,755,,,709,778,792,,,-3,,,,,
,200,11,4147,,3180,3883,4948,,2615,3077,,,3491,3482,3789,,,-5,,,,,
,273,-11,2161,,1208,1539,2503,,836,763,,,1509,1211,1153,,,6,,,,,
,-384,,308,,93,75,444,,-78,-66,,,340,196,415,,,-3,,,,,
,45,-1,-547,,-540,-755,-710,,-442,-712,,,-636,-764,-793,,,11,,,,,
,104,10,-4179,,-3154,-3815,-5002,,-2665,-3042,,,-3642,-3501,-3719,,,-12,,,,,
,485,4,-1805,,-970,-1177,-2253,,-618,-722,,,-1353,-1285,-1718,,,3,,,,,
,-404,,-71,,11,20,-329,,,7,,,-102,-94,-226,,,9,,,,,
,-72,-2,648,,605,671,837,,564,745,,,759,740,769,,,-10,,,,,
,-138,-2,3664,,2843,3435,4577,,2544,2972,,,3625,3469,3820,,,-4,,,,,
,518,-28,2348,,1063,1513,2495,,711,772,,,1133,1115,1386,,,-2,,,,,
,33,-2,948,,194,455,794,,-194,16,,,-276,83,190,,,-1,,,,,
,-367,6,-499,,-751,-748,-710,,-818,-810,,,-832,-795,-815,,,,,,,,
,2787,-7,-3241,,-2751,-3541,-4734,,-2371,-3006,,,-3449,-3453,-3903,,,8,,,,,
,-2548,52,-636,,-673,-1086,-2073,,-564,-692,,,-1317,-1262,-1354,,,7,,,,,
,-713,-30,754,,281,194,-206,,130,67,,,-117,-102,-127,,,-12,,,,,
,626,-2,1203,,906,1141,1113,,632,835,,,821,826,752,,,8,,,,,
,-252,2,4785,,3238,4010,5129,,2636,3093,,,3692,3449,3741,,,,,,,,
,-231,,2737,,1203,1544,2582,,455,858,,,978,1151,1497,,,5,,,,,
,-122,-15,1498,,522,494,831,,162,104,,,28,56,84,,,-1,,,,,
,236,-16,186,,-443,-525,-558,,-531,-743,,,-826,-828,-757,,,2,,,,,
,1297,,-3417,,-3015,-3452,-4614,,-2658,-3034,,,-3564,-3450,-3767,,,-6,,,,,
,7,12,-1339,,-830,-1100,-2125,,-413,-718,,,-1105,-1229,-1714,,,-6,,,,,
,-945,-3,726,,298,156,-125,,172,25,,,-41,-43,-73,,,5,,,,,
,861,,1123,,849,873,914,,651,788,,,780,771,850,,,8,,,,,
,-1539,4,4214,,3053,3757,4858,,2410,3032,,,3478,3419,3815,,,-18,,,,,
,320,-14,2523,,1187,1694,2581,,690,855,,,1282,1147,1252,,,11,,,,,
,-27,10,666,,208,312,537,,17,49,,,65,64,65,,,-6,,,,,
,1492,-10,-281,,-500,-693,-653,,-530,-761,,,-747,-771,-731,,,-1,,,,,
,268,10,-3525,,-2877,-3555,-4598,,-2502,-2980,,,-3665,-3453,-3802,,,9,,,,,
,-1872,,-1852,,-1024,-1385,-2400,,-606,-788,,,-1253,-1133,-1290,,,4,,,,,
,-28,,-229,,-127,-59,-478,,86,-44,,,8,-138,-262,,,4,,,,,
,652,,882,,735,942,997,,792,774,,,761,772,733,,,-7,,,,,
,-541,-29,4190,,3066,3752,4935,,2203,3043,,,3307,3439,3922,,,-1,,,,,
,73,,1766,,900,1158,2223,,521,784,,,1245,1188,1508,,,5,,,,,
,10147,-1,364,,137,95,362,,104,11,,,230,102,50,,,,,,,,
,-3861,,-486,,-723,-658,-690,,-738,-808,,,-915,-820,-820,,,-2,,,,,
,-3194,7,-4010,,-3013,-3644,-4817,,-2492,-3052,,,-3651,-3458,-3867,,,-4,,,,,
,-3030,20,-2051,,-1210,-1514,-2451,,-770,-783,,,-1202,-1113,-1274,,,4,,,,,
,-70,-7,-334,,-24,-142,-209,,65,38,,,-107,-138,25,,,,,,,,
,810,-19,590,,753,815,813,,742,775,,,906,814,821,,,-15,,,,,
,-215,7,3524,,2741,3536,4437,,2590,2927,,,3638,3540,3653,,,17,,,,,
,1678,1,1171,,691,1139,2136,,500,743,,,1103,1211,1578,,,11,,,,,
,3057,23,-32,,218,158,444,,274,143,,,328,72,-153,,,-20,,,,,
,-3782,-42,-758,,-666,-843,-815,,-743,-745,,,-633,-783,-879,,,-11,,,,,
,-979,19,-4700,,-3205,-3902,-5060,,-2713,-3050,,,-3796,-3478,-3644,,,15,,,,,
,3605,-3,-2825,,-1356,-1565,-2644,,-745,-845,,,-1304,-1169,-1268,,,2,,,,,
,-1354,-13,-969,,-268,-267,-527,,70,-69,,,-30,-75,-170,,,-4,,,,,
,-2471,8,-28,,514,590,692,,472,773,,,738,843,851,,,6,,,,,
,1318,8,3269,,2766,3302,4570,,2636,2991,,,3721,3484,3872,,,4,,,,,
,8524,11,1073,,775,1044,1984,,661,727,,,1276,1174,1432,,,5,,,,,
,-3695,-29,-557,,-173,-90,13,,5,-73,,,232,109,128,,,-8,,,,,
,-3749,10,-593,,-473,-626,-808,,-513,-792,,,-795,-764,-829,,,-7,,,,,
,-2469,-10,-4295,,-2959,-3720,-4924,,-2548,-2980,,,-3625,-3467,-3789,,,4,,,,,
,5369,2,-2851,,-1323,-1758,-2694,,-688,-830,,,-1165,-1186,-1320,,,-4,,,,,
,-3416,-1,-449,,-130,-135,-307,,-122,-37,,,-106,-100,-86,,,12,,,,,
,-2121,,509,,618,770,670,,519,767,,,717,778,798,,,-9,,,,,
,267,1,2889,,2582,3325,4390,,2295,2933,,,3465,3480,3846,,,-6,,,,,
,298,,1543,,923,1183,2228,,722,744,,,1334,1212,1381,,,,,,,,
,26,-21,618,,323,172,553,,158,36,,,146,78,151,,,-3,,,,,
,-366,3,-1414,,-1029,-1103,-1091,,-832,-846,,,-956,-824,-759,,,3,,,,,
,-48,1,-4385,,-3122,-3740,-5019,,-2485,-3078,,,-3533,-3437,-3930,,,3,,,,,
,989,-10,-1948,,-1205,-1380,-2291,,-847,-857,,,-1191,-1059,-1135,,,,,,,,
,-1148,9,-536,,-171,-246,-485,,-6,-57,,,-105,-72,-10,,,,,,,,
,2380,-17,189,,647,640,677,,707,772,,,874,785,762,,,5,,,,,
,-2699,23,3729,,2934,3671,4827,,2623,3053,,,3656,3436,3873,,,,,,,,
,2075,-9,2156,,1202,1606,2524,,530,832,,,1128,1144,1375,,,-6,,,,,
,-1688,16,68,,173,179,313,,42,51,,,112,52,-22,,,-6,,,,,
,-40,-17,-888,,-598,-812,-921,,-475,-722,,,-686,-791,-948,,,-3,,,,,
,1850,,-4299,,-3212,-3889,-4943,,-2616,-3061,,,-3470,-3431,-3670,,,,,,,,
,2451,-3,-2235,,-1251,-1548,-2467,,-684,-810,,,-1223,-1138,-1317,,,16,,,,,
,-3756,-9,-550,,-135,-206,-571,,-7,-10,,,-156,-76,-210,,,2,,,,,
,38,-1,470,,454,736,716,,564,777,,,803,774,751,,,-16,,,,,
,-729,,3740,,2864,3584,4813,,2363,2967,,,3339,3460,4026,,,10,,,,,
,-77,14,1821,,1120,1293,2370,,695,743,,,1209,1163,1309,,,-7,,,,,
,156,-13,339,,200,173,435,,41,36,,,156,80,93,,,-6,,,,,
,-113,-17,-632,,-637,-632,-755,,-695,-770,,,-928,-821,-721,,,2,,,,,
,55,-1,-3908,,-2950,-3601,-4846,,-2459,-3040,,,-3437,-3406,-3837,,,14,,,,,
,,-4,-2159,,-1227,-1619,-2537,,-712,-854,,,-1117,-1157,-1422,,,-1,,,,,
,217,22,-509,,-179,-374,-488,,-93,1,,,-35,-95,-302,,,-15,,,,,
,-204,-17,262,,484,481,423,,578,720,,,558,779,730,,,8,,,,,
,1925,-5,3706,,2859,3578,4601,,2543,3007,,,3579,3484,3713,,,,,,,,
,-2084,22,1979,,997,1446,2465,,659,832,,,1255,1190,1444,,,-5,,,,,
,549,-19,622,,415,322,509,,258,78,,,174,68,117,,,-1,,,,,
,2070,1,-737,,-561,-771,-720,,-602,-799,,,-702,-775,-728,,,1,,,,,
,4474,-3,-4240,,-3201,-3750,-4836,,-2862,-3096,,,-3610,-3403,-3621,,,-1,,,,,
,-3820,3,-1908,,-1031,-1318,-2372,,-736,-810,,,-1330,-1146,-1363,,,3,,,,,
,-1557,-14,-459,,-199,-197,-454,,-21,9,,,-24,-53,13,,,23,,,,,
,-1690,20,507,,622,676,722,,690,777,,,872,777,820,,,-9,,,,,
,97,-18,3913,,3070,3559,4788,,2706,3045,,,3700,3491,3847,,,-1,,,,,
,588,8,1860,,1009,1293,2319,,819,762,,,1377,1208,1385,,,7,,,,,
,-33,5,25,,-52,77,229,,-32,-46,,,208,138,-11,,,-23,,,,,
,3499,-1,-645,,-681,-715,-719,,-716,-750,,,-979,-841,-862,,,3,,,,,
,-3654,4,-3951,,-3020,-3726,-4856,,-2626,-3005,,,-3664,-3499,-3695,,,8,,,,,
,1825,-17,-1928,,-950,-1432,-2396,,-535,-759,,,-1154,-1217,-1612,,,-6,,,,,
,1361,14,-392,,-176,-164,-404,,-153,33,,,-257,-112,,,,2,,,,,
,-3107,,838,,766,952,920,,524,807,,,654,789,868,,,-11,,,,,
,1497,-15,3783,,2951,3647,4766,,2607,2983,,,3642,3428,3746,,,3,,,,,
,-1757,-8,1842,,1107,1271,2228,,790,770,,,1284,1195,1623,,,6,,,,,
,257,-12,656,,414,302,754,,30,116,,,66,72,-145,,,11,,,,,
,-670,,-875,,-772,-929,-979,,-518,-832,,,-645,-835,-912,,,-1,,,,,
,2027,,-4139,,-3100,-3676,-4945,,-2610,-3064,,,-3662,-3473,-3794,,,4,,,,,
,-1157,22,-2196,,-1143,-1473,-2529,,-694,-828,,,-1238,-1105,-1366,,,-14,,,,,
,-285,-18,-289,,-318,-253,-444,,-197,-69,,,-1,-19,-118,,,-4,,,,,
,-776,18,696,,611,705,826,,621,774,,,781,720,750,,,6,,,,,
,420,,4058,,3195,3768,4765,,2604,3022,,,3559,3504,3824,,,,,,,,
,1338,,2015,,1123,1537,2420,,646,822,,,1242,1183,1362,,,12,,,,,
,-1637,-22,348,,187,283,538,,-19,83,,,-9,65,160,,,-7,,,,,
,998,,-919,,-670,-861,-876,,-580,-798,,,-676,-746,-741,,,-3,,,,,
,71,4,-3967,,-2942,-3686,-4749,,-2499,-2967,,,-3580,-3451,-3657,,,-7,,,,,
,-665,-4,-1853,,-1083,-1433,-2401,,-692,-744,,,-1285,-1202,-1433,,,3,,,,,
,555,4,-517,,-275,-280,-656,,-39,-78,,,-46,-108,-405,,,-2,,,,,
,-874,-1,530,,619,770,731,,755,717,,,883,756,604,,,,,,,,
,558,-4,3968,,2951,3611,4734,,2725,3043,,,3742,3462,3784,,,11,,,,,
,-38,4,2012,,1178,1357,2484,,656,845,,,1148,1212,1645,,,2,,,,,
,2158,1,513,,279,345,634,,50,95,,,116,146,134,,,-3,,,,,
,-2169,-4,-561,,-570,-643,-832,,-609,-756,,,-847,-769,-814,,,1,,,,,
,-545,-23,-4149,,-3216,-3715,-4854,,-2823,-3056,,,-3643,-3425,-3708,,,,,,,,
,-77,27,-1838,,-1161,-1443,-2418,,-834,-792,,,-1411,-1189,-1260,,,,,,,,
,5060,-13,-594,,-268,-408,-656,,-8,-58,,,5,-112,-84,,,2,,,,,
,-2664,7,474,,589,699,698,,653,712,,,878,758,700,,,-10,,,,,
,3124,-5,3863,,2862,3735,4910,,2458,2986,,,3572,3517,3870,,,4,,,,,
,-3679,-23,2019,,1084,1482,2526,,760,787,,,1137,1147,1400,,,1,,,,,
,-781,,350,,136,141,412,,12,20,,,95,91,179,,,5,,,,,
,-373,-1,-803,,-720,-905,-880,,-663,-781,,,-675,-801,-789,,,7,,,,,
,175,22,-3928,,-3038,-3661,-4810,,-2709,-3040,,,-3637,-3483,-3768,,,-6,,,,,
,215,-19,-1984,,-1062,-1316,-2394,,-645,-750,,,-1210,-1159,-1359,,,1,,,,,
,-814,19,-305,,-120,-50,-300,,29,51,,,-23,-128,-344,,,-9,,,,,
,2871,-17,623,,694,790,820,,798,829,,,933,757,606,,,1,,,,,
,-2536,-2,3717,,2970,3485,4662,,2442,2981,,,3391,3454,3952,,,10,,,,,
,-129,-11,1786,,1025,1239,2242,,627,709,,,1141,1152,1470,,,4,,,,,
,-111,9,480,,184,330,479,,32,31,,,42,110,3,,,,,,,,
,3402,-9,-465,,-663,-611,-677,,-661,-731,,,-754,-736,-825,,,,,,,,
,-340,-1,-3845,,-2833,-3639,-4834,,-2398,-2997,,,-3376,-3437,-3823,,,-10,,,,,
,-528,1,-1951,,-905,-1427,-2396,,-473,-733,,,-1212,-1226,-1527,,,-14,,,,,
,1935,11,-487,,-169,-194,-480,,-50,-4,,,-204,-159,-111,,,8,,,,,
,-3585,1,802,,815,972,873,,786,850,,,800,704,661,,,-2,,,,,
,372,-12,4083,,3120,3893,5015,,2607,3089,,,3607,3460,3658,,,14,,,,,
,4527,-1,1881,,1051,1376,2407,,645,767,,,1255,1224,1494,,,-3,,,,,
,-3717,10,201,,-47,-52,282,,-79,-82,,,131,109,338,,,-9,,,,,
,-2027,8,-707,,-761,-837,-802,,-723,-781,,,-869,-809,-837,,,2,,,,,
,-47,-6,-4048,,-3100,-3702,-4897,,-2683,-3064,,,-3565,-3398,-3675,,,2,,,,,
,2462,1,-1930,,-1114,-1377,-2380,,-762,-865,,,-1286,-1188,-1350,,,-9,,,,,
,-1788,-3,-432,,-195,-210,-451,,-178,-75,,,-328,-94,-18,,,7,,,,,
,342,-9,464,,610,632,670,,664,809,,,785,728,732,,,1,,,,,
,-36,,4207,,3313,3838,4933,,2533,3112,,,3370,3422,3812,,,-6,,,,,
,-654,-44,1840,,892,1380,2282,,740,757,,,1418,1210,1395,,,12,,,,,
,389,44,-73,,-13,51,186,,106,-11,,,314,175,193,,,4,,,,,
,8508,-2,-670,,-625,-702,-558,,-626,-753,,,-893,-827,-738,,,-8,,,,,
,-3610,-15,-3441,,-2947,-3596,-4482,,-2634,-3013,,,-3619,-3513,-3644,,,4,,,,,
,-1344,-26,-1931,,-1157,-1534,-2549,,-775,-819,,,-1147,-1161,-1402,,,-2,,,,,
,-3902,43,-872,,-293,-285,-673,,-132,-47,,,-63,-85,-349,,,-11,,,,,
,-592,,674,,684,828,854,,626,791,,,719,815,848,,,9,,,,,
,2638,-43,4070,,3111,3687,4794,,2688,3019,,,3668,3486,3787,,,3,,,,,
,-2194,-12,1918,,1097,1306,2397,,870,813,,,1350,1184,1281,,,5,,,,,
,114,12,257,,151,79,357,,114,64,,,12,35,94,,,-7,,,,,
,-661,-14,-765,,-680,-672,-736,,-643,-721,,,-946,-893,-1080,,,2,,,,,
,1007,44,-3723,,-2960,-3507,-4751,,-2562,-3001,,,-3379,-3466,-3839,,,2,,,,,
,-781,-6,-1800,,-981,-1364,-2261,,-660,-721,,,-1184,-1177,-1414,,,5,,,,,
,619,-1,-426,,-140,-307,-424,,16,2,,,-84,-99,-94,,,-4,,,,,
,-190,,559,,674,706,672,,722,743,,,904,788,858,,,-5,,,,,
,2023,-33,4192,,3096,3866,4996,,2306,2998,,,3275,3478,3859,,,,,,,,
,11150,34,2089,,1061,1536,2574,,611,771,,,1122,1132,1361,,,-10,,,,,
,-3455,-25,244,,127,138,433,,82,45,,,243,88,135,,,7,,,,,
,-3645,33,-626,,-597,-866,-923,,-521,-711,,,-723,-800,-780,,,-4,,,,,
,-3741,6,-4158,,-3164,-3887,-5071,,-2518,-2994,,,-3515,-3526,-3876,,,-4,,,,,
,-2462,-46,-2126,,-1218,-1408,-2467,,-747,-810,,,-1416,-1149,-1321,,,10,,,,,
,2602,-4,-278,,-127,-182,-515,,-5,-83,,,-51,42,63,,,16,,,,,
,-2400,11,693,,700,733,721,,692,753,,,845,793,832,,,-10,,,,,
,3464,-29,3836,,2959,3532,4754,,2482,2935,,,3548,3497,4036,,,-16,,,,,
,-3919,18,1928,,1098,1454,2561,,516,770,,,1106,1187,1426,,,-5,,,,,
,-437,-20,450,,166,323,474,,-160,21,,,85,126,133,,,10,,,,,
,481,20,-654,,-561,-638,-812,,-605,-748,,,-744,-758,-905,,,5,,,,,
,-434,-16,-3977,,-3099,-3673,-4827,,-2583,-2995,,,-3561,-3458,-3839,,,-7,,,,,
,491,19,-1949,,-1228,-1591,-2464,,-710,-768,,,-1249,-1239,-1337,,,-2,,,,,
,19939,-21,-582,,-119,-327,-648,,208,25,,,-106,-168,-212,,,1,,,,,
,-3523,-1,413,,383,704,641,,576,722,,,748,743,781,,,-2,,,,,
,-3656,-10,3989,,2950,3689,4803,,2581,2990,,,3620,3485,3758,,,11,,,,,
,-3692,,1900,,1053,1351,2289,,829,730,,,1428,1255,1380,,,-1,,,,,
,-3740,10,586,,370,297,663,,-49,104,,,97,136,211,,,,,,,,
,-3612,1,-396,,-363,-549,-622,,-514,-708,,,-692,-799,-950,,,,,,,,
,-1228,-15,-4173,,-3143,-3679,-4925,,-2811,-3050,,,-3677,-3463,-3800,,,-2,,,,,
,4244,5,-1692,,-922,-1152,-2180,,-585,-674,,,-1298,-1206,-1683,,,,,,,,
,-3667,9,-427,,-180,-155,-452,,-33,3,,,-172,-126,-102,,,8,,,,,
,-395,10,437,,607,629,567,,659,778,,,842,791,735,,,2,,,,,
,-1068,-10,3791,,2942,3647,4755,,2594,3028,,,3525,3414,3659,,,-7,,,,,
,2047,-10,1793,,960,1366,2349,,692,772,,,1144,1142,1393,,,2,,,,,
,461,-14,465,,182,208,427,,99,17,,,113,90,144,,,-1,,,,,
,-2405,14,-605,,-582,-773,-737,,-505,-761,,,-777,-737,-678,,,,,,,,
,586,11,-4080,,-3162,-3891,-4937,,-2611,-3106,,,-3427,-3372,-3688,,,-2,,,,,
,-956,6,-1981,,-1258,-1520,-2489,,-792,-845,,,-1033,-1171,-1397,,,-2,,,,,
,1246,-17,-208,,83,61,-251,,-78,38,,,-334,-135,-56,,,3,,,,,
,59,-6,797,,659,913,826,,408,786,,,625,739,805,,,5,,,,,
,6126,-13,3767,,2714,3571,4761,,2310,2974,,,3502,3447,3876,,,-8,,,,,
,-3622,19,1766,,1029,1243,2348,,626,789,,,1232,1208,1579,,,7,,,,,
,905,,339,,219,98,343,,9,45,,,14,109,225,,,3,,,,,
,-3246,-22,-803,,-691,-820,-1014,,-498,-824,,,-760,-807,-853,,,-10,,,,,
,-514,3,-3887,,-3007,-3596,-4801,,-2448,-3026,,,-3465,-3525,-4020,,,-5,,,,,
,1634,,-1915,,-1086,-1449,-2412,,-602,-814,,,-1212,-1201,-1410,,,8,,,,,
,-2032,17,-486,,-176,-351,-476,,51,-57,,,-4,-60,-9,,,2,,,,,
,818,-18,617,,683,738,776,,672,746,,,867,850,933,,,12,,,,,
,-1129,18,4016,,3064,3815,4904,,2603,3032,,,3590,3460,3523,,,-17,,,,,
,426,-18,1867,,986,1442,2355,,598,746,,,1187,1171,1364,,,-2,,,,,
,-578,-13,382,,189,210,625,,-8,53,,,86,135,94,,,-3,,,,,
,436,,-742,,-665,-840,-777,,-658,-722,,,-779,-830,-782,,,7,,,,,
,29,14,-3915,,-3040,-3674,-4931,,-2470,-2976,,,-3475,-3508,-3901,,,-7,,,,,
,-588,-1,-1873,,-1096,-1355,-2426,,-708,-743,,,-1153,-1185,-1536,,,-7,,,,,
,978,-12,-379,,-109,-113,-534,,-122,10,,,-294,-74,-78,,,10,,,,,
,-502,12,808,,872,890,820,,859,826,,,879,732,593,,,-4,,,,,
,403,-10,3879,,3080,3568,4810,,2757,3037,,,3687,3448,3821,,,2,,,,,
,-153,-2,1712,,920,1209,2268,,611,742,,,1181,1187,1568,,,-1,,,,,
,317,12,453,,182,266,460,,95,38,,,90,91,61,,,-7,,,,,
,-554,-13,-753,,-777,-783,-900,,-570,-843,,,-516,-721,-867,,,-2,,,,,
,-280,3,-3825,,-2951,-3627,-4779,,-2801,-2999,,,-3794,-3420,-3567,,,3,,,,,
,450,10,-1964,,-1127,-1536,-2380,,-814,-795,,,-1390,-1184,-1274,,,6,,,,,
,47,-12,-604,,-284,-385,-633,,21,-90,,,16,-58,-138,,,5,,,,,
,102,-18,599,,584,738,773,,493,711,,,659,742,708,,,,,,,,
,-761,28,4013,,2854,3709,4835,,2347,2981,,,3622,3511,3851,,,5,,,,,
,-175,-28,1913,,1102,1324,2280,,809,755,,,1342,1238,1474,,,-7,,,,,
,380,19,558,,199,91,430,,77,27,,,86,83,240,,,-8,,,,,
,788,-1,-487,,-480,-769,-798,,-521,-754,,,-865,-806,-813,,,12,,,,,
,-929,-13,-3942,,-3172,-3681,-4858,,-2698,-3025,,,-3679,-3457,-3757,,,8,,,,,
,57,15,-1922,,-1194,-1378,-2465,,-735,-783,,,-1222,-1185,-1535,,,,,,,,
,252,-1,-456,,-174,-212,-425,,-48,19,,,-213,-104,-84,,,-8,,,,,
,993,1,678,,736,709,800,,665,763,,,875,733,624,,,-2,,,,,
,-1257,-18,4027,,3084,3677,4788,,2626,2993,,,3672,3486,3832,,,6,,,,,
,708,17,2075,,1141,1566,2549,,681,824,,,1165,1175,1523,,,-2,,,,,
,2105,-2,675,,368,514,736,,192,133,,,192,60,-137,,,-7,,,,,
,-2254,-18,-720,,-707,-767,-753,,-588,-732,,,-735,-807,-870,,,-2,,,,,
,-456,-11,-3972,,-2958,-3793,-4835,,-2746,-2987,,,-3734,-3477,-3722,,,7,,,,,
,-96,-2,-2171,,-1160,-1567,-2524,,-566,-760,,,-1161,-1209,-1396,,,-12,,,,,
,256,3,-281,,-38,15,-377,,147,29,,,4,-145,-218,,,,,,,,
,94,-1,1022,,959,1144,976,,764,870,,,796,689,685,,,2,,,,,
,458,1,3997,,3054,3761,4881,,2514,3028,,,3507,3451,3788,,,1,,,,,
,-400,-1,1857,,1142,1330,2359,,749,809,,,1238,1238,1440,,,2,,,,,
,3657,-1,204,,-82,82,365,,-61,15,,,160,118,198,,,10,,,,,
,-3734,2,-792,,-718,-723,-734,,-732,-749,,,-950,-864,-793,,,-9,,,,,
,397,15,-3846,,-2841,-3453,-4633,,-2601,-2978,,,-3734,-3449,-3824,,,7,,,,,
,-688,-15,-2039,,-1394,-1595,-2537,,-951,-904,,,-1043,-1091,-1196,,,5,,,,,
,5,,-527,,-265,-393,-521,,-160,-116,,,-207,-96,-41,,,4,,,,,
,617,-1,581,,745,722,616,,783,725,,,811,812,742,,,-12,,,,,
,-48,-11,3572,,2780,3577,4583,,2510,2956,,,3619,3458,3759,,,-5,,,,,
,463,22,1861,,1020,1458,2358,,678,826,,,1014,1103,1277,,,7,,,,,
,-521,-28,363,,105,114,313,,196,8,,,156,65,87,,,-10,,,,,
,105,16,-686,,-666,-872,-785,,-765,-823,,,-692,-735,-727,,,2,,,,,
,-673,1,-3934,,-3045,-3770,-4842,,-2719,-3041,,,-3696,-3449,-3732,,,4,,,,,
,-171,,-1929,,-1169,-1436,-2453,,-692,-773,,,-1238,-1182,-1368,,,4,,,,,
,154,-1,-330,,-98,-24,-337,,16,39,,,-199,-162,-267,,,,,,,,
,1244,4,595,,638,758,762,,591,789,,,747,777,760,,,1,,,,,
,243,-2,3795,,3050,3569,4768,,2607,3024,,,3557,3500,3969,,,4,,,,,
,-1185,,2005,,1100,1386,2383,,789,811,,,1348,1173,1404,,,1,,,,,
,380,-21,481,,90,220,397,,-7,72,,,131,53,-79,,,-12,,,,,
,-168,1,-594,,-586,-734,-930,,-610,-788,,,-828,-768,-894,,,-6,,,,,
,-19,-2,-3909,,-3022,-3684,-4883,,-2591,-3035,,,-3544,-3434,-3706,,,15,,,,,
,-127,-11,-2091,,-1100,-1488,-2325,,-603,-793,,,-1066,-1138,-1428,,,-2,,,,,
,395,,-236,,-10,-133,-372,,140,-1,,,-10,-56,-171,,,4,,,,,
,269,-1,775,,812,883,815,,744,797,,,879,793,742,,,-5,,,,,
,-707,13,4028,,3115,3835,4828,,2525,3023,,,3560,3451,3788,,,-8,,,,,
,-688,-10,1924,,1051,1412,2340,,680,776,,,1220,1161,1470,,,11,,,,,
,1526,10,280,,88,33,392,,63,26,,,16,109,284,,,1,,,,,
,2538,-22,-653,,-794,-866,-778,,-912,-837,,,-870,-738,-607,,,-8,,,,,
,-3791,22,-3953,,-3113,-3658,-4817,,-2709,-3060,,,-3506,-3407,-3856,,,-6,,,,,
,713,-11,-2024,,-1096,-1395,-2486,,-664,-831,,,-1184,-1173,-1544,,,16,,,,,
,-524,11,-438,,-185,-273,-554,,39,-68,,,-21,-80,-142,,,-10,,,,,
,857,-12,515,,577,597,721,,718,715,,,801,752,817,,,-3,,,,,
,-565,2,3930,,3171,3693,4871,,2453,3043,,,3370,3405,3822,,,-1,,,,,
,378,,2034,,1115,1467,2378,,767,838,,,1178,1140,1374,,,2,,,,,
,5103,11,440,,47,280,455,,-65,47,,,34,113,168,,,4,,,,,
,-3838,-1,-716,,-653,-681,-700,,-715,-729,,,-752,-811,-974,,,10,,,,,
,583,16,-3770,,-2800,-3565,-4623,,-2483,-2942,,,-3751,-3563,-3755,,,1,,,,,
,-1892,-20,-1968,,-1037,-1478,-2392,,-564,-764,,,-1139,-1219,-1427,,,-7,,,,,
,-48,-7,-692,,-308,-316,-678,,-143,-80,,,-112,-42,25,,,-12,,,,,
,2025,3,677,,600,903,798,,575,700,,,844,790,552,,,-9,,,,,
,91,-23,3922,,2975,3646,4807,,2605,2973,,,3658,3475,3850,,,-3,,,,,
,3629,22,1925,,1141,1308,2423,,712,824,,,1161,1154,1515,,,7,,,,,
,-3914,,668,,436,281,478,,289,79,,,182,33,-28,,,16,,,,,
,-2069,-10,-579,,-606,-653,-750,,-633,-744,,,-764,-820,-923,,,,,,,,
,379,9,-3856,,-2967,-3515,-4750,,-2597,-2939,,,-3587,-3457,-3856,,,-5,,,,,
,-572,-19,-1705,,-1016,-1287,-2241,,-681,-685,,,-1259,-1212,-1395,,,,,,,,
,1090,-12,-683,,-329,-373,-469,,-84,-17,,,-11,-72,-74,,,-7,,,,,
,2650,12,808,,755,808,855,,417,752,,,518,773,871,,,-3,,,,,
,-3654,-15,3977,,2977,3598,4649,,2502,2932,,,3517,3502,3796,,,14,,,,,
,2699,14,1840,,811,1292,2212,,474,636,,,1395,1292,1462,,,-2,,,,,
,-2693,,386,,174,137,388,,121,-16,,,175,172,292,,,-6,,,,,
,2357,-11,-686,,-638,-873,-835,,-534,-760,,,-855,-755,-627,,,-5,,,,,
,-1566,11,-4137,,-2986,-3749,-4904,,-2422,-3006,,,-3563,-3497,-3870,,,2,,,,,
,1386,1,-1925,,-1155,-1322,-2299,,-779,-752,,,-1255,-1216,-1535,,,4,,,,,
,-2176,-13,-522,,-206,-120,-467,,-39,-32,,,-179,-130,-55,,,,,,,,
,448,1,1021,,911,1007,935,,835,848,,,928,754,653,,,-1,,,,,
,9495,,4036,,3043,3656,4832,,2592,3016,,,3771,3489,3799,,,13,,,,,
,-3708,,1931,,1087,1338,2381,,572,766,,,958,1162,1558,,,1,,,,,
,-3798,11,462,,231,271,476,,31,70,,,78,12,-1,,,-8,,,,,
,-1738,-20,-731,,-636,-679,-819,,-635,-777,,,-796,-777,-887,,,10,,,,,
,1958,-1,-3958,,-3085,-3669,-4799,,-2620,-3037,,,-3498,-3445,-3927,,,-12,,,,,
,-1634,10,-1752,,-1004,-1432,-2338,,-636,-771,,,-1248,-1200,-1295,,,-5,,,,,
,733,-15,-279,,-175,-249,-478,,-31,-50,,,-149,-147,-98,,,5,,,,,
,404,1,398,,517,633,571,,673,715,,,936,840,838,,,2,,,,,
,-1326,14,3946,,3018,3818,4807,,2576,3052,,,3631,3463,3747,,,-7,,,,,
,-898,-19,2361,,1384,1722,2717,,667,905,,,1044,1124,1291,,,7,,,,,
,106,20,564,,299,193,465,,273,78,,,177,50,101,,,-5,,,,,
,-198,,-665,,-568,-779,-734,,-517,-690,,,-672,-796,-821,,,2,,,,,
,37,-1,-3993,,-3097,-3663,-4826,,-2649,-3029,,,-3575,-3522,-3886,,,7,,,,,
,1862,,-1785,,-1058,-1295,-2330,,-722,-791,,,-1240,-1250,-1467,,,-5,,,,,
,-2040,-24,-339,,-139,-225,-508,,-24,-54,,,26,-15,-33,,,-5,,,,,
,8181,-7,473,,671,599,676,,723,738,,,758,817,1011,,,4,,,,,
,-1452,11,3943,,2931,3591,4769,,2472,2989,,,3540,3453,3889,,,11,,,,,
,-3522,-1,1737,,865,1274,2226,,590,711,,,1266,1258,1571,,,2,,,,,
,-602,2,-26,,-87,89,269,,-101,-43,,,68,185,293,,,-6,,,,,
,-2294,-11,-648,,-689,-817,-872,,-732,-810,,,-716,-751,-846,,,-13,,,,,
,6222,12,-3699,,-2958,-3712,-4704,,-2553,-2993,,,-3667,-3484,-3925,,,-2,,,,,
,-3401,-12,-1986,,-1135,-1569,-2511,,-683,-760,,,-1370,-1210,-1248,,,2,,,,,
,-2677,10,-439,,-88,-112,-401,,31,-22,,,-60,-108,-307,,,5,,,,,
,259,12,819,,773,949,796,,620,742,,,793,774,620,,,1,,,,,
,-527,-12,3838,,2901,3644,4757,,2504,3004,,,3605,3495,3889,,,4,,,,,
,4885,-11,1790,,985,1305,2366,,755,803,,,1292,1175,1416,,,-7,,,,,
,-3844,1,372,,195,184,478,,-212,58,,,-148,72,172,,,3,,,,,
,3453,11,-697,,-716,-787,-883,,-647,-765,,,-769,-837,-862,,,10,,,,,
,3554,,-3865,,-2934,-3529,-4846,,-2424,-2982,,,-3416,-3487,-3983,,,-6,,,,,
,-3450,2,-1927,,-1008,-1362,-2338,,-513,-744,,,-1048,-1218,-1562,,,-8,,,,,
,-3554,-15,-92,,130,-35,-209,,145,86,,,-119,-111,-228,,,6,,,,,
,2653,2,460,,627,736,747,,637,818,,,640,727,886,,,3,,,,,
,-2251,,4029,,2986,3758,4770,,2435,3037,,,3548,3450,3729,,,3,,,,,
,-449,,2370,,1329,1767,2742,,722,875,,,1107,1163,1338,,,1,,,,,
,4752,-2,470,,346,320,511,,178,81,,,231,127,40,,,-13,,,,,
,-142,,-1022,,-933,-1035,-1055,,-834,-816,,,-719,-738,-753,,,6,,,,,
,-3677,-20,-4472,,-3275,-3965,-5162,,-2682,-3074,,,-3691,-3483,-3708,,,2,,,,,
,-1407,29,-1806,,-948,-1287,-2195,,-664,-786,,,-1326,-1224,-1459,,,3,,,,,
,-362,-28,325,,1,108,-96,,33,-25,,,-31,-46,-123,,,1,,,,,
,519,20,1090,,808,844,883,,859,713,,,968,844,821,,,-1,,,,,
,-84,-19,2948,,2617,3162,4325,,2511,2900,,,3554,3509,3958,,,-2,,,,,
,-473,-14,1289,,808,1056,2065,,689,759,,,1243,1189,1474,,,-4,,,,,
,-24,12,379,,134,186,436,,-202,-12,,,-40,125,125,,,-1,,,,,
,1042,-11,-1126,,-1050,-983,-1127,,-934,-878,,,-897,-792,-798,,,-8,,,,,
,3453,4,-4154,,-3284,-3808,-4966,,-2748,-3032,,,-3580,-3430,-3769,,,6,,,,,
,-3811,8,-1786,,-961,-1415,-2283,,-526,-755,,,-1151,-1170,-1373,,,16,,,,,
,-18,-1,-250,,3,-151,-346,,119,-12,,,-44,-94,41,,,-12,,,,,
,78,1,725,,717,856,827,,677,776,,,840,822,775,,,1,,,,,
,-10,-11,4123,,3147,3837,4846,,2597,3033,,,3468,3416,3679,,,5,,,,,
,-549,1,2076,,1214,1470,2481,,745,832,,,1177,1194,1459,,,-16,,,,,
,-88,-1,321,,89,85,457,,23,74,,,254,151,192,,,9,,,,,
,-83,12,-741,,-831,-803,-725,,-748,-765,,,-726,-824,-853,,,,,,,,
,2253,-2,-3782,,-2791,-3475,-4645,,-2540,-2994,,,-3796,-3521,-3771,,,-12,,,,,
,-2059,2,-1822,,-1100,-1249,-2280,,-730,-737,,,-1164,-1108,-1337,,,3,,,,,
,700,3,27,,139,120,-222,,134,63,,,-56,-89,-228,,,,,,,,
,-203,-14,576,,698,737,786,,748,823,,,923,756,747,,,7,,,,,
,-267,11,3842,,3103,3603,4725,,2681,3057,,,3561,3371,3559,,,2,,,,,
,2960,-12,1891,,935,1307,2341,,562,750,,,1209,1161,1344,,,-4,,,,,
,-2767,-20,231,,-72,158,321,,-13,2,,,133,121,166,,,2,,,,,
,864,,-679,,-574,-751,-820,,-661,-774,,,-842,-799,-866,,,-6,,,,,
,-994,,-3962,,-3114,-3812,-4830,,-2837,-3070,,,-3628,-3444,-3709,,,,,,,,
,-879,20,-1849,,-1064,-1455,-2398,,-560,-789,,,-1121,-1173,-1460,,,10,,,,,
,1859,-22,-397,,-133,-165,-546,,18,-64,,,-220,-119,-71,,,-9,,,,,
,-2090,29,622,,612,777,710,,622,748,,,753,773,796,,,10,,,,,
,369,-7,3929,,3087,3618,4634,,2671,2990,,,3638,3513,3782,,,7,,,,,
,1463,,1987,,995,1203,2197,,720,716,,,1355,1233,1432,,,-3,,,,,
,-1140,-23,321,,80,59,432,,2,-47,,,70,113,293,,,4,,,,,
,-17,22,-714,,-715,-803,-772,,-814,-799,,,-876,-758,-645,,,-3,,,,,
,-291,-18,-3919,,-3056,-3612,-4838,,-2712,-3028,,,-3655,-3429,-3812,,,-5,,,,,
,3099,-11,-1990,,-1206,-1463,-2437,,-763,-840,,,-1290,-1157,-1344,,,9,,,,,
,-2989,-1,-428,,-199,-308,-478,,,-65,,,-33,-87,1,,,-11,,,,,
,4903,2,292,,546,601,588,,662,716,,,838,765,828,,,,,,,,
,-3686,,3884,,2999,3704,4732,,2534,3017,,,3461,3384,3669,,,-4,,,,,
,-1888,8,2266,,1266,1694,2578,,811,845,,,1158,1145,1303,,,-4,,,,,
,1396,-9,331,,222,278,487,,192,70,,,266,108,71,,,3,,,,,
,-436,12,-499,,-534,-644,-535,,-699,-676,,,-799,-816,-765,,,12,,,,,
,-41,-12,-3832,,-2850,-3596,-4709,,-2332,-2926,,,-3391,-3478,-3861,,,-5,,,,,
,677,11,-1704,,-1000,-1214,-2173,,-970,-720,,,-1384,-1164,-1236,,,-12,,,,,
,1945,,-173,,-80,94,-183,,-34,43,,,-136,-90,-193,,,1,,,,,
,6756,1,811,,777,861,787,,856,780,,,915,799,749,,,3,,,,,
,-3891,8,3806,,2943,3557,4776,,2709,3014,,,3677,3451,3848,,,16,,,,,
,-3485,-9,1896,,942,1222,2313,,656,754,,,1274,1116,1236,,,-4,,,,,
,-155,-7,221,,40,-21,122,,49,-50,,,295,76,23,,,-9,,,,,
,-1010,-4,-619,,-625,-706,-896,,-629,-765,,,-768,-795,-847,,,5,,,,,
,-490,-20,-3830,,-2939,-3528,-4660,,-2611,-2930,,,-3783,-3504,-3943,,,2,,,,,
,-374,20,-1972,,-1051,-1441,-2303,,-649,-758,,,-1365,-1218,-1398,,,-1,,,,,
,1734,-21,-290,,-110,-258,-504,,-85,-44,,,-79,-39,-77,,,-20,,,,,
,-1623,19,562,,635,749,609,,645,716,,,827,837,758,,,17,,,,,
,144,-16,3978,,3028,3845,4859,,2546,2978,,,3522,3499,3833,,,5,,,,,
,-283,-1,1986,,1110,1417,2413,,704,774,,,1283,1211,1469,,,4,,,,,
,1651,-1,343,,120,7,337,,72,44,,,138,145,233,,,-9,,,,,
,-2055,47,-746,,-830,-985,-958,,-810,-803,,,-823,-750,-740,,,-8,,,,,
,26,-47,-4243,,-3323,-3868,-5000,,-2705,-3068,,,-3612,-3434,-3695,,,5,,,,,
,-251,-11,-2230,,-1198,-1411,-2460,,-804,-820,,,-1336,-1226,-1403,,,11,,,,,
,9,11,-917,,-250,-305,-638,,-186,-81,,,-239,-195,-69,,,-10,,,,,
,132,,729,,710,752,846,,751,789,,,851,754,592,,,-5,,,,,
,3288,-13,4795,,3454,4002,5248,,2816,3149,,,3659,3444,3672,,,2,,,,,
,-3048,2,2785,,1402,1764,2852,,756,885,,,1146,1140,1276,,,,,,,,
,3,1,707,,184,370,548,,-89,1,,,39,121,150,,,3,,,,,
,-106,10,-1065,,-864,-866,-923,,-849,-827,,,-813,-724,-700,,,3,,,,,
,18,1,-3453,,-2908,-3580,-4603,,-2583,-2985,,,-3604,-3482,-3592,,,-1,,,,,
,2152,-12,-1547,,-817,-1303,-2282,,-419,-729,,,-1022,-1129,-1509,,,4,,,,,
,-1881,,-635,,-148,-194,-532,,78,-60,,,35,-42,-132,,,-4,,,,,
,4,10,451,,668,907,779,,681,792,,,819,756,708,,,-1,,,,,
,568,8,4190,,3262,3879,4943,,2832,3107,,,3735,3460,3660,,,9,,,,,
,-793,-18,1889,,1083,1310,2314,,873,810,,,1426,1180,1407,,,-1,,,,,
,298,-1,274,,12,51,333,,-165,-5,,,-15,102,164,,,3,,,,,
,-400,-1,-775,,-788,-817,-886,,-678,-780,,,-819,-837,-952,,,-13,,,,,
,54,13,-4074,,-3097,-3694,-4934,,-2583,-3058,,,-3615,-3528,-3853,,,-7,,,,,
,429,-9,-2014,,-1137,-1461,-2420,,-744,-792,,,-1346,-1219,-1507,,,10,,,,,
,936,-2,-233,,-180,-187,-335,,-325,-29,,,-323,-69,-42,,,-9,,,,,
,-1227,-21,565,,574,630,649,,713,730,,,1013,811,805,,,-2,,,,,
,41,-1,3882,,3034,3714,4797,,2551,3019,,,3502,3432,3820,,,3,,,,,
,289,-1,2099,,1211,1624,2613,,775,823,,,1030,1125,1414,,,7,,,,,
,-593,4,585,,132,231,501,,-19,-2,,,181,121,10,,,4,,,,,
,-6,,-876,,-816,-1016,-925,,-778,-891,,,-750,-738,-592,,,6,,,,,
,25,19,-4075,,-3045,-3875,-4910,,-2571,-3070,,,-3527,-3428,-3671,,,-7,,,,,
,-57,-20,-1858,,-968,-1359,-2378,,-640,-772,,,-1342,-1202,-1432,,,-5,,,,,
,851,1,-76,,16,85,-297,,-76,1,,,-225,-118,-157,,,,,,,,
,-751,-1,674,,645,859,846,,573,769,,,810,795,826,,,1,,,,,
,-44,1,3730,,2874,3493,4624,,2552,2998,,,3604,3440,3815,,,3,,,,,
,467,-11,1983,,1112,1370,2380,,738,836,,,1166,1132,1427,,,9,,,,,
,-357,11,394,,211,252,503,,82,74,,,135,76,87,,,3,,,,,
,580,-11,-639,,-675,-694,-828,,-722,-752,,,-836,-772,-796,,,-12,,,,,
,-511,,-4008,,-3191,-3720,-4815,,-2635,-3029,,,-3421,-3414,-3869,,,1,,,,,
,2126,11,-2037,,-1140,-1592,-2466,,-632,-869,,,-1096,-1130,-1253,,,-4,,,,,
,-2203,-19,-133,,49,-182,-417,,147,-21,,,18,-45,-34,,,5,,,,,
,134,18,562,,742,814,799,,872,806,,,1067,821,732,,,-1,,,,,
,-61,-11,4226,,3259,3929,4974,,2561,3070,,,3518,3460,3823,,,-9,,,,,
,-193,21,2095,,1273,1555,2547,,792,833,,,1167,1120,1485,,,11,,,,,
,252,-20,390,,183,214,487,,127,71,,,269,66,-108,,,,,,,,
,2707,11,-594,,-785,-826,-798,,-813,-784,,,-650,-719,-754,,,-9,,,,,
,-2205,-7,-4341,,-3155,-3785,-4920,,-2580,-3000,,,-3614,-3473,-3815,,,8,,,,,
,-128,-5,-1951,,-1119,-1386,-2414,,-771,-770,,,-1670,-1258,-1445,,,8,,,,,
,698,-19,-237,,-209,-231,-489,,-84,-68,,,-118,-132,-371,,,-11,,,,,
,-1097,4,526,,590,682,786,,606,765,,,765,782,833,,,2,,,,,
,1195,15,3904,,3136,3678,4904,,2652,3032,,,3493,3419,3743,,,-10,,,,,
,-165,,2441,,1211,1489,2408,,655,794,,,1093,1205,1346,,,1,,,,,
,-1821,2,481,,39,273,479,,-39,11,,,112,159,157,,,-1,,,,,
,5389,-21,-514,,-717,-760,-712,,-676,-794,,,-775,-771,-666,,,-1,,,,,
,-3728,21,-3273,,-2857,-3570,-4646,,-2627,-3047,,,-3532,-3465,-3702,,,11,,,,,
,122,-10,-1592,,-1010,-1415,-2347,,-687,-841,,,-1171,-1184,-1369,,,-7,,,,,
,-1618,-11,901,,174,248,-38,,-4,70,,,-284,-179,-184,,,,,,,,
,1291,-11,1564,,917,1228,1119,,535,855,,,520,734,762,,,2,,,,,
,-789,-2,5070,,3397,4056,5088,,2568,3089,,,3470,3414,3753,,,2,,,,,
,-257,1,2997,,1406,1673,2792,,766,923,,,1174,1074,1286,,,3,,,,,
,88,11,968,,249,237,600,,145,66,,,181,7,27,,,-10,,,,,
,402,,-176,,-600,-691,-833,,-706,-784,,,-820,-806,-879,,,-1,,,,,
,-300,-9,-3369,,-2947,-3418,-4587,,-2595,-3041,,,-3495,-3388,-3742,,,9,,,,,
,-106,,-853,,-735,-1050,-2039,,-387,-730,,,-1160,-1180,-1383,,,5,,,,,
,3555,-1,459,,237,-28,-257,,249,74,,,-5,-110,-157,,,,,,,,
,-3120,1,891,,742,808,971,,677,795,,,1076,797,750,,,-4,,,,,
,-434,-2,4615,,3284,3952,4979,,2640,3012,,,3616,3481,3959,,,-4,,,,,
,409,10,2548,,1262,1727,2631,,638,813,,,1050,1252,1611,,,2,,,,,
,-213,14,803,,376,423,750,,229,87,,,247,66,-54,,,1,,,,,
,-515,-23,-160,,-506,-683,-626,,-635,-739,,,-757,-754,-776,,,,,,,,
,101,1,-3653,,-2838,-3662,-4742,,-2439,-2958,,,-3573,-3538,-3929,,,-2,,,,,
,138,-7,-2122,,-1347,-1533,-2453,,-838,-807,,,-1442,-1267,-1493,,,2,,,,,
,415,6,-535,,-315,-259,-679,,-130,-97,,,-160,-89,-222,,,6,,,,,
,-224,,883,,653,722,650,,637,689,,,885,815,768,,,2,,,,,
,980,7,3953,,2972,3588,4877,,2490,2975,,,3385,3449,3963,,,-6,,,,,
,-1039,-13,2232,,1154,1386,2601,,729,805,,,1213,1142,1339,,,-4,,,,,
,1527,11,659,,237,257,442,,38,22,,,144,143,51,,,-4,,,,,
,-1336,5,-771,,-766,-713,-862,,-764,-752,,,-947,-792,-793,,,-8,,,,,
,351,-16,-3934,,-3026,-3642,-4793,,-2834,-2997,,,-3781,-3515,-3812,,,15,,,,,
,-169,-19,-1865,,-935,-1405,-2397,,-596,-709,,,-1268,-1226,-1496,,,-4,,,,,
,957,3,-323,,-30,-209,-428,,121,43,,,-126,-172,-95,,,-2,,,,,
,-1229,-5,826,,720,924,1003,,607,800,,,605,666,792,,,8,,,,,
,-221,9,4162,,3083,3908,4966,,2579,3038,,,3692,3514,3695,,,,,,,,
,146,-3,1847,,1087,1405,2310,,685,779,,,1312,1299,1586,,,-2,,,,,
,-160,19,117,,23,25,402,,-40,-26,,,215,128,184,,,-3,,,,,
,675,-10,-702,,-661,-887,-759,,-594,-800,,,-651,-757,-723,,,-12,,,,,
,-681,12,-3839,,-2955,-3621,-4719,,-2544,-2977,,,-3591,-3477,-3777,,,4,,,,,
,532,-24,-2213,,-1294,-1436,-2537,,-715,-793,,,-1165,-1180,-1570,,,8,,,,,
,-297,12,-780,,-189,-247,-677,,39,-55,,,-1,-115,-152,,,-9,,,,,
,324,1,709,,859,881,912,,808,834,,,723,659,663,,,-4,,,,,
,-164,-19,3811,,3112,3593,4716,,2782,3075,,,3594,3390,3761,,,15,,,,,
,11,19,1140,,648,1089,2097,,500,726,,,1302,1235,1596,,,3,,,,,
,101,-1,60,,101,177,303,,-9,-20,,,52,163,-11,,,-11,,,,,
,2043,-6,-723,,-589,-728,-795,,-568,-791,,,-699,-746,-845,,,,,,,,
,-1709,-11,-4692,,-3205,-3966,-5118,,-2600,-3026,,,-3489,-3424,-3694,,,3,,,,,
,-514,17,-2828,,-1340,-1829,-2813,,-609,-800,,,-1100,-1172,-1408,,,,,,,,
,428,,-662,,-223,-306,-569,,69,-35,,,-81,-95,-177,,,5,,,,,
,180,1,-171,,408,571,395,,215,693,,,569,859,885,,,-1,,,,,
,-19,-18,2733,,2530,3247,4244,,2453,2941,,,3547,3523,3786,,,2,,,,,
,-384,18,1883,,949,1230,2313,,630,695,,,1181,1212,1545,,,-1,,,,,
,-24,-18,-304,,-149,-242,43,,-70,-89,,,183,186,391,,,,,,,,
,799,-1,-1681,,-950,-1038,-1102,,-688,-803,,,-655,-740,-871,,,6,,,,,
,-177,18,-3810,,-2882,-3445,-4676,,-2629,-3013,,,-3683,-3512,-3826,,,-8,,,,,
,2466,-43,-1978,,-1049,-1372,-2389,,-663,-797,,,-1252,-1214,-1310,,,-3,,,,,
,-2789,41,-1339,,-624,-582,-816,,-248,-90,,,-185,-65,-68,,,4,,,,,
,2502,-24,353,,670,614,601,,706,759,,,812,758,665,,,2,,,,,
,-2672,8,3954,,3068,3685,4831,,2584,3049,,,3575,3401,3723,,,-1,,,,,
,334,-10,1469,,883,1305,2148,,506,764,,,1183,1163,1313,,,-4,,,,,
,-736,-16,118,,135,186,381,,96,63,,,117,119,83,,,4,,,,,
,830,27,-627,,-563,-716,-685,,-542,-740,,,-797,-801,-797,,,10,,,,,
,-431,-1,-4115,,-2949,-3729,-4836,,-2428,-3012,,,-3394,-3467,-3800,,,-2,,,,,
,-739,1,-2258,,-1173,-1435,-2459,,-625,-740,,,-1147,-1148,-1372,,,-10,,,,,
,923,,-462,,-196,-92,-380,,-66,25,,,-196,-115,-163,,,1,,,,,
,535,-1,405,,574,721,702,,635,790,,,807,756,746,,,-1,,,,,
,-994,-9,3787,,3061,3570,4620,,2753,3024,,,3702,3465,3603,,,5,,,,,
,290,10,1623,,995,1162,2247,,704,770,,,1260,1138,1444,,,3,,,,,
,211,-46,263,,105,126,423,,-242,-19,,,124,110,321,,,2,,,,,
,-458,1,-576,,-616,-628,-683,,-507,-750,,,-716,-743,-843,,,-13,,,,,
,-339,19,-3948,,-2976,-3574,-4657,,-2556,-2998,,,-3617,-3439,-3714,,,12,,,,,
,346,15,-2029,,-988,-1453,-2384,,-548,-777,,,-1147,-1146,-1344,,,6,,,,,
,61,-38,-185,,23,-183,-363,,73,2,,,228,-76,-208,,,-12,,,,,
,1612,9,435,,606,678,685,,627,764,,,2626,801,738,,,-1,,,,,
,-1533,4,3569,,2722,3553,4579,,2379,2931,,,4745,3440,3769,,,7,,,,,
,-480,6,1681,,914,1298,2250,,542,722,,,1222,1167,1457,,,-2,,,,,
,1017,2,-69,,-129,-136,196,,-116,-39,,,44,115,205,,,-8,,,,,
,-624,-14,-902,,-835,-1087,-1004,,-774,-815,,,-870,-763,-785,,,7,,,,,
,2774,-15,-4136,,-3173,-3886,-5075,,-2712,-3083,,,-3707,-3472,-3750,,,-9,,,,,
,-2399,,-2159,,-1185,-1436,-2527,,-793,-815,,,-1519,-1253,-1541,,,5,,,,,
,-381,9,-450,,-183,-180,-444,,-121,-27,,,-258,-76,-233,,,3,,,,,
,392,2,873,,885,919,989,,736,837,,,594,716,765,,,5,,,,,
,7841,16,4000,,3111,3655,4898,,2600,3047,,,3386,3413,3988,,,-5,,,,,
,-3479,-31,1827,,1020,1397,2412,,713,776,,,1186,1215,1522,,,-3,,,,,
,-3560,4,260,,88,255,452,,65,29,,,84,143,186,,,-20,,,,,
,-1004,11,-436,,-570,-590,-652,,-578,-754,,,-676,-722,-787,,,7,,,,,
,349,1,-4104,,-3129,-3761,-4832,,-2582,-3030,,,-3573,-3478,-3742,,,21,,,,,
,-858,-2,-2152,,-1090,-1491,-2322,,-771,-722,,,-1298,-1156,-1382,,,-8,,,,,
,3518,6,-255,,38,-59,-481,,25,27,,,-148,-111,-134,,,5,,,,,
,-3692,-7,680,,718,916,750,,735,815,,,788,705,547,,,-5,,,,,
,4421,-9,4047,,3104,3797,4842,,2583,3067,,,3477,3424,3552,,,2,,,,,
,-3719,14,1856,,981,1305,2366,,775,809,,,1340,1199,1413,,,-12,,,,,
,418,-29,299,,155,47,421,,72,18,,,23,66,202,,,5,,,,,
,-109,27,-662,,-539,-783,-897,,-495,-782,,,-756,-803,-954,,,-3,,,,,
,,-24,-3970,,-3267,-3689,-4869,,-2834,-3088,,,-3540,-3379,-3753,,,-3,,,,,
,-325,12,-1926,,-1159,-1417,-2398,,-676,-847,,,-1222,-1120,-1388,,,15,,,,,
,628,-21,-381,,-161,-238,-475,,-29,-68,,,-71,-41,-68,,,-4,,,,,
,-1250,5,924,,735,836,869,,553,787,,,698,785,910,,,,,,,,
,365,-7,3834,,2998,3643,4761,,2546,3030,,,3576,3510,3962,,,5,,,,,
,-216,3,1697,,945,1360,2265,,615,739,,,1161,1165,1321,,,-3,,,,,
,363,9,228,,63,69,273,,-8,-18,,,-61,80,188,,,1,,,,,
,-8,-8,-858,,-752,-1001,-980,,-600,-838,,,-766,-754,-689,,,,,,,,
,-9,-2,-4023,,-3087,-3818,-4789,,-2588,-3047,,,-3537,-3443,-3858,,,-6,,,,,
,73,1,-2135,,-1326,-1583,-2478,,-722,-868,,,-1312,-1220,-1313,,,,,,,,
,1023,,-201,,-86,-50,-268,,-244,-58,,,-316,-138,-175,,,-10,,,,,
,-1320,9,613,,721,874,829,,577,779,,,751,787,810,,,,,,,,
,75,-9,3818,,2883,3593,4737,,2561,3008,,,3634,3502,3935,,,8,,,,,
,67,-14,2210,,1145,1410,2457,,726,807,,,1184,1202,1573,,,5,,,,,
,125,19,378,,154,175,400,,84,33,,,68,87,20,,,13,,,,,
,93,-4,-880,,-777,-752,-880,,-735,-804,,,-856,-765,-813,,,-17,,,,,
,-716,6,-3857,,-2887,-3518,-4747,,-2499,-2971,,,-3532,-3468,-3862,,,-1,,,,,
,247,-18,-1962,,-1017,-1357,-2239,,-627,-730,,,-1260,-1244,-1418,,,2,,,,,
,890,16,-511,,-197,-272,-451,,-20,4,,,-109,-174,-93,,,-1,,,,,
,-944,-27,674,,726,830,719,,675,805,,,698,753,666,,,1,,,,,
,-32,12,3974,,2995,3774,4793,,2472,3048,,,3473,3415,3637,,,10,,,,,
,482,11,2207,,1258,1615,2600,,825,880,,,1321,1198,1259,,,9,,,,,
,-264,-12,382,,187,206,470,,155,48,,,234,104,76,,,-14,,,,,
,195,-20,-707,,-754,-913,-814,,-729,-794,,,-942,-827,-643,,,-8,,,,,
,-389,18,-4341,,-3318,-3879,-4954,,-2803,-3097,,,-3571,-3426,-3714,,,4,,,,,
,366,-20,-2678,,-1466,-1578,-2679,,-827,-835,,,-1376,-1149,-1504,,,2,,,,,
,-412,19,-147,,1,-85,-473,,277,1,,,52,-72,-249,,,5,,,,,
,-72,-12,1982,,1333,1209,1240,,948,872,,,1001,823,803,,,4,,,,,
,685,17,4357,,3388,3716,4882,,2657,3034,,,3646,3443,3779,,,-16,,,,,
,3060,-22,1837,,941,1212,2187,,764,756,,,1397,1192,1383,,,2,,,,,
,-3770,1,-325,,-139,-40,106,,-109,-60,,,63,128,146,,,-2,,,,,
,422,17,-605,,-581,-771,-931,,-628,-833,,,-888,-787,-699,,,4,,,,,
,125,-18,-3665,,-2937,-3752,-4823,,-2521,-3058,,,-3571,-3487,-3823,,,5,,,,,
,1717,,-2133,,-1211,-1710,-2642,,-603,-849,,,-1141,-1232,-1599,,,-13,,,,,
,5800,-12,-396,,-229,-313,-577,,-144,-68,,,-317,-116,-60,,,3,,,,,
,-3743,1,154,,444,669,558,,472,725,,,659,794,825,,,4,,,,,
,-3523,-2,3837,,2917,3648,4632,,2541,3002,,,3652,3529,3858,,,,,,,,
,107,-2,2239,,1141,1428,2484,,638,785,,,1150,1203,1428,,,-9,,,,,
,-957,17,509,,204,55,453,,37,2,,,125,167,384,,,12,,,,,
,-16,-15,-845,,-705,-853,-871,,-730,-779,,,-742,-762,-729,,,6,,,,,
,968,,-4026,,-2990,-3545,-4789,,-2630,-3000,,,-3710,-3518,-3843,,,-3,,,,,
,-842,19,-1628,,-892,-1102,-2128,,-605,-700,,,-1257,-1219,-1518,,,1,,,,,
,517,-6,-322,,-72,-99,-286,,61,41,,,-110,-87,-91,,,,,,,,
,2138,,622,,750,745,757,,800,862,,,861,759,699,,,-5,,,,,
,-1581,-14,3851,,3052,3657,4717,,2591,3052,,,3565,3455,3814,,,-3,,,,,
,2848,14,1951,,1093,1500,2430,,585,793,,,1011,1122,1531,,,13,,,,,
,-3679,-9,566,,226,368,551,,271,69,,,400,111,-314,,,-10,,,,,
,820,-4,-613,,-585,-753,-796,,-744,-805,,,-812,-731,-692,,,4,,,,,
,-679,,-3972,,-2942,-3732,-4770,,-2608,-3044,,,-3705,-3484,-3716,,,,,,,,
,4408,4,-1804,,-1127,-1348,-2236,,-805,-770,,,-1273,-1215,-1375,,,-4,,,,,
,-3649,-21,-171,,-26,-8,-329,,62,61,,,-147,-141,-189,,,-5,,,,,
,-1139,25,853,,755,910,860,,775,830,,,810,748,718,,,11,,,,,
,303,-24,4034,,3082,3713,4872,,2645,3034,,,3574,3446,3815,,,4,,,,,
,-550,2,1831,,1014,1195,2274,,673,727,,,1282,1196,1525,,,1,,,,,
,537,-3,103,,-37,-44,242,,31,-71,,,115,92,65,,,-5,,,,,
,321,16,-968,,-853,-900,-970,,-787,-849,,,-764,-721,-730,,,,,,,,
,-977,3,-3910,,-3022,-3653,-4901,,-2614,-3037,,,-3544,-3394,-3754,,,11,,,,,
,745,-21,-1823,,-1060,-1397,-2377,,-656,-816,,,-1326,-1205,-1409,,,-20,,,,,
,-361,19,-484,,-211,-301,-381,,-99,-65,,,-188,-124,-120,,,-4,,,,,
,1596,-18,617,,679,717,668,,737,756,,,952,847,891,,,2,,,,,
,-1244,-2,4092,,3072,3889,4932,,2616,3084,,,3561,3485,3677,,,2,,,,,
,2974,3,1912,,1056,1460,2438,,602,796,,,1116,1213,1425,,,,,,,,
,-3154,-2,256,,59,90,354,,4,27,,,147,101,235,,,8,,,,,
,-137,2,-731,,-785,-925,-872,,-669,-737,,,-768,-835,-758,,,-3,,,,,
,-70,1,-3955,,-2925,-3649,-4866,,-2466,-2976,,,-3492,-3499,-4017,,,-8,,,,,
,1139,-3,-1839,,-1049,-1310,-2342,,-669,-791,,,-1265,-1159,-1373,,,6,,,,,
,-896,2,-440,,-151,-194,-600,,108,-70,,,54,-30,-200,,,10,,,,,
,1995,5,835,,890,886,858,,673,788,,,743,755,670,,,-3,,,,,
,-1636,-3,4112,,3062,3643,4882,,2406,3018,,,3355,3395,3882,,,2,,,,,
,3593,-4,1909,,1073,1350,2380,,770,806,,,1290,1160,1275,,,-4,,,,,
,-2692,,395,,174,254,444,,-20,38,,,,40,-37,,,5,,,,,
,4021,4,-748,,-702,-637,-698,,-752,-736,,,-960,-821,-800,,,-12,,,,,
,-3419,-2,-3980,,-3045,-3619,-4717,,-2582,-3027,,,-3569,-3476,-3634,,,-3,,,,,
,-2207,-19,-1734,,-947,-1343,-2207,,-597,-666,,,-1307,-1258,-1361,,,9,,,,,
,2265,17,-252,,19,-19,-305,,101,55,,,-71,-92,-248,,,-2,,,,,
,-882,1,820,,578,829,757,,533,687,,,942,851,809,,,5,,,,,
,-1687,-17,3780,,2906,3572,4616,,2569,2924,,,3622,3555,3966,,,,,,,,
,-84,-1,2009,,1175,1408,2419,,868,800,,,1377,1183,1348,,,-10,,,,,
,972,,579,,340,199,560,,221,50,,,226,116,146,,,3,,,,,
,391,,-761,,-783,-818,-839,,-869,-798,,,-1010,-744,-626,,,3,,,,,
,463,18,-4018,,-3033,-3623,-4786,,-2587,-2997,,,-3587,-3533,-3997,,,-3,,,,,
,-1583,-25,-1859,,-1085,-1339,-2409,,-700,-738,,,-1264,-1199,-1435,,,6,,,,,
,194,25,-221,,-46,-131,-418,,38,-31,,,-18,-75,-222,,,1,,,,,
,175,-8,454,,559,586,639,,664,720,,,832,793,865,,,6,,,,,
,3404,-16,3848,,3014,3631,4649,,2575,2999,,,3669,3517,3802,,,-4,,,,,
,681,,1960,,1070,1540,2489,,633,800,,,1173,1148,1393,,,-4,,,,,
,1135,-17,452,,143,311,516,,18,-15,,,131,101,65,,,4,,,,,
,-3658,23,-606,,-677,-757,-782,,-724,-850,,,-881,-771,-764,,,-14,,,,,
,-1468,-14,-4026,,-3022,-3784,-4871,,-2610,-3024,,,-3634,-3497,-3786,,,-9,,,,,
,-256,14,-2058,,-1171,-1547,-2530,,-714,-766,,,-1299,-1243,-1443,,,-4,,,,,
,175,-23,-448,,-234,-190,-598,,-109,-56,,,-151,-81,-178,,,10,,,,,
,3342,-1,163,,449,656,475,,559,684,,,936,885,856,,,12,,,,,
,-3746,16,3510,,2842,3617,4800,,2490,3000,,,3548,3530,4010,,,1,,,,,
,523,8,2499,,1277,1620,2855,,800,935,,,1065,1088,1509,,,3,,,,,
,3164,2,1086,,400,375,765,,260,74,,,190,55,124,,,-14,,,,,
,-3774,-2,-81,,-349,-467,-412,,-845,-783,,,-937,-806,-861,,,,,,,,
,2802,-24,-4001,,-3087,-3661,-4919,,-2540,-3074,,,-3415,-3416,-3810,,,5,,,,,
,-2375,24,-2044,,-1142,-1482,-2498,,-644,-805,,,-1203,-1145,-1369,,,-3,,,,,
,557,-42,-415,,-71,-289,-460,,92,-60,,,-28,-110,-254,,,9,,,,,
,-641,-2,424,,543,580,578,,619,763,,,775,774,771,,,,,,,,
,2009,1,3668,,2792,3554,4576,,2401,3018,,,3485,3449,3770,,,-2,,,,,
,-213,1,1999,,1114,1532,2481,,753,826,,,1270,1194,1247,,,-8,,,,,
,-1536,1,427,,188,183,402,,103,30,,,75,107,165,,,9,,,,,
,-202,-2,-564,,-605,-841,-740,,-515,-773,,,-670,-764,-730,,,-1,,,,,
,367,2,-4013,,-3112,-3771,-4823,,-2636,-3045,,,-3604,-3518,-3704,,,-8,,,,,
,5660,35,-1993,,-1134,-1348,-2321,,-726,-748,,,-1210,-1191,-1499,,,13,,,,,
,-3376,-36,-290,,-160,-101,-412,,-120,-72,,,-266,-81,-25,,,3,,,,,
,-3123,-2,956,,794,817,818,,680,705,,,758,832,841,,,-9,,,,,
,852,-2,4075,,3108,3566,4745,,2699,2991,,,3703,3541,3760,,,10,,,,,
,-577,8,1664,,903,1227,2216,,598,763,,,1290,1267,1582,,,-1,,,,,
,497,-3,346,,68,177,331,,-82,42,,,118,98,119,,,-2,,,,,
,1183,-17,-558,,-630,-631,-647,,-727,-736,,,-872,-858,-996,,,6,,,,,
,-732,16,-3828,,-2944,-3598,-4682,,-2543,-2977,,,-3656,-3516,-3846,,,-4,,,,,
,-881,-9,-1975,,-1076,-1527,-2335,,-664,-734,,,-1351,-1224,-1302,,,-7,,,,,
,1426,10,-412,,-72,-220,-414,,5,6,,,-89,-110,-220,,,-10,,,,,
,1870,-12,656,,490,778,717,,517,713,,,704,792,914,,,3,,,,,
,-1857,-3,3929,,2969,3719,4839,,2512,2962,,,3545,3490,3721,,,9,,,,,
,-1760,13,1967,,1084,1397,2452,,689,750,,,1158,1184,1412,,,-7,,,,,
,366,3,131,,36,-15,314,,3,20,,,130,124,253,,,-4,,,,,
,-44,-30,-657,,-602,-728,-730,,-610,-712,,,-837,-812,-878,,,-6,,,,,
,442,28,-3838,,-2964,-3575,-4878,,-2587,-2987,,,-3570,-3481,-3799,,,15,,,,,
,4601,,-1686,,-947,-1229,-2282,,-565,-728,,,-1040,-1156,-1569,,,8,,,,,
,-3769,-31,-464,,-214,-239,-443,,-145,-15,,,-192,-99,-52,,,-10,,,,,
,1781,19,622,,646,652,821,,750,752,,,885,760,810,,,1,,,,,
,-3303,-2,3968,,3010,3625,4826,,2718,3005,,,3664,3492,3742,,,-3,,,,,
,801,-19,2001,,1077,1472,2435,,417,795,,,858,1218,1553,,,,,,,,
,169,,356,,71,216,436,,25,41,,,130,102,95,,,-3,,,,,
,986,7,-682,,-703,-809,-857,,-659,-775,,,-762,-814,-814,,,,,,,,
,-2289,11,-3857,,-2944,-3729,-4749,,-2451,-2987,,,-3458,-3478,-3912,,,6,,,,,
,1562,-17,-1978,,-1111,-1531,-2490,,-587,-809,,,-1128,-1204,-1469,,,-6,,,,,
,815,19,-439,,-203,-121,-470,,-48,-15,,,-158,-138,-199,,,3,,,,,
,-758,-1,941,,865,1079,1033,,636,801,,,768,765,822,,,1,,,,,
,2970,-19,3958,,3001,3713,4918,,2459,3029,,,3630,3509,3903,,,-6,,,,,
,-3740,-9,1765,,1069,1248,2366,,730,816,,,1212,1127,1406,,,-1,,,,,
,-156,12,305,,68,-8,184,,8,-9,,,29,36,90,,,-1,,,,,
,448,-2,-665,,-684,-722,-841,,-610,-767,,,-801,-765,-928,,,4,,,,,
,337,2,-3802,,-2989,-3551,-4741,,-2538,-3008,,,-3525,-3396,-3776,,,4,,,,,
,-716,1,-1802,,-1034,-1365,-2360,,-613,-764,,,-1152,-1161,-1328,,,6,,,,,
,2064,,-402,,-78,-292,-489,,41,-68,,,30,-55,59,,,-8,,,,,
,-2419,-17,825,,850,863,897,,737,795,,,870,750,541,,,-2,,,,,
,68,1,4134,,3177,3940,5085,,2507,3067,,,3279,3367,3847,,,1,,,,,
,-190,,2012,,1095,1572,2485,,659,821,,,1157,1177,1554,,,-2,,,,,
,546,,416,,189,215,405,,252,25,,,298,101,50,,,7,,,,,
,-554,-14,-467,,-473,-715,-634,,-711,-752,,,-752,-735,-915,,,-8,,,,,
,3315,14,-3903,,-3055,-3775,-4897,,-2559,-3003,,,-3588,-3485,-3818,,,5,,,,,
,-2762,14,-1885,,-1156,-1424,-2353,,-675,-804,,,-1339,-1224,-1412,,,5,,,,,
,-298,,-356,,-175,-135,-402,,-37,-89,,,-69,-99,-95,,,-7,,,,,
,1250,-10,757,,532,761,785,,549,704,,,811,842,935,,,11,,,,,
,-1339,5,3860,,2971,3600,4855,,2505,2998,,,3488,3504,3919,,,5,,,,,
,8195,-8,1882,,1008,1298,2287,,663,783,,,1192,1146,1366,,,-9,,,,,
,-3037,-20,415,,96,140,345,,12,18,,,91,91,64,,,-11,,,,,
,-3798,2,-883,,-851,-820,-817,,-771,-792,,,-878,-778,-859,,,-3,,,,,
,-1164,17,-4079,,-3079,-3758,-4855,,-2569,-3003,,,-3541,-3447,-3877,,,13,,,,,
,-9,-20,-1908,,-1079,-1569,-2520,,-639,-813,,,-1212,-1190,-1322,,,-1,,,,,
,-326,3,-460,,-189,-236,-466,,-35,-63,,,-115,-131,-218,,,1,,,,,
,255,18,465,,506,721,680,,530,680,,,795,805,707,,,-7,,,,,
,-244,-1,4131,,3033,3799,4828,,2426,2960,,,3523,3593,4059,,,2,,,,,
,-47,-30,2175,,1253,1597,2583,,711,876,,,1240,1210,1276,,,,,,,,
,545,-1,449,,274,208,542,,95,102,,,73,33,42,,,10,,,,,
,920,29,-720,,-714,-814,-810,,-713,-707,,,-914,-833,-713,,,1,,,,,
,-880,-27,-3747,,-2906,-3489,-4645,,-2499,-2930,,,-3679,-3551,-3885,,,-7,,,,,
,-93,12,-1832,,-1007,-1292,-2340,,-546,-798,,,-1096,-1156,-1403,,,2,,,,,
,4247,-3,-208,,-21,-80,-338,,89,-37,,,90,-61,-197,,,7,,,,,
,-3714,1,903,,793,734,880,,769,768,,,877,780,816,,,-7,,,,,
,2238,,3859,,2973,3489,4656,,2763,2964,,,3781,3530,3877,,,-5,,,,,
,-3421,-5,2075,,1159,1464,2467,,614,808,,,1248,1195,1461,,,-5,,,,,
,888,22,619,,258,451,682,,-129,90,,,-107,44,-8,,,,,,,,
,-554,-28,-763,,-719,-860,-931,,-691,-773,,,-896,-809,-671,,,4,,,,,
,3704,,-3882,,-3048,-3745,-4662,,-2655,-2990,,,-3496,-3461,-3698,,,-5,,,,,
,-3757,5,-2069,,-1121,-1563,-2574,,-599,-806,,,-1251,-1229,-1256,,,3,,,,,
,-37,1,-230,,-41,-86,-425,,127,-30,,,-67,-94,-184,,,-1,,,,,
,285,,841,,843,911,810,,848,761,,,1042,843,426,,,2,,,,,
,-190,-1,3654,,2862,3455,4587,,2480,2940,,,3503,3472,3832,,,3,,,,,
,1787,-10,1863,,989,1201,2325,,596,773,,,1114,1214,1685,,,3,,,,,
,-1956,23,325,,189,101,402,,72,-5,,,200,131,-33,,,3,,,,,
,6100,-10,-801,,-793,-826,-903,,-929,-816,,,-1032,-768,-822,,,-5,,,,,
,-3355,-13,-3880,,-3110,-3580,-4793,,-2768,-3026,,,-3676,-3475,-3901,,,-2,,,,,
,-2366,33,-1977,,-1185,-1410,-2278,,-713,-759,,,-1297,-1198,-1472,,,-1,,,,,
,1375,-21,-484,,-178,-324,-444,,39,5,,,-5,-59,-26,,,7,,,,,
,-1461,12,682,,749,760,750,,795,798,,,961,762,659,,,-4,,,,,
,2456,-7,3952,,2863,3688,4822,,2491,3016,,,3557,3480,3795,,,-9,,,,,
,623,-5,1964,,1090,1501,2420,,693,831,,,1184,1133,1240,,,8,,,,,
,-2234,-2,349,,147,147,508,,-46,19,,,55,112,237,,,-2,,,,,
,-585,7,-583,,-582,-850,-764,,-590,-783,,,-710,-755,-638,,,1,,,,,
,9366,,-3744,,-2857,-3577,-4726,,-2501,-3012,,,-3674,-3480,-3640,,,4,,,,,
,-3696,5,-1894,,-1025,-1274,-2152,,-629,-728,,,-1177,-1188,-1563,,,1,,,,,
,-3703,-16,-187,,-121,-84,-312,,-124,-27,,,-166,-84,-108,,,-1,,,,,
,-2305,23,836,,726,788,734,,779,768,,,895,731,569,,,,,,,,
,-244,-24,3812,,2937,3476,4694,,2647,2998,,,3657,3487,3942,,,6,,,,,
,28,1,2095,,1225,1459,2528,,506,833,,,987,1161,1544,,,-15,,,,,
,-165,-18,463,,201,274,519,,162,54,,,176,46,-57,,,3,,,,,
,249,-1,-754,,-730,-769,-839,,-701,-809,,,-809,-781,-756,,,-3,,,,,
,371,18,-4064,,-3086,-3794,-4945,,-2622,-3111,,,-3472,-3382,-3602,,,12,,,,,
,-35,-20,-1767,,-998,-1424,-2290,,-618,-845,,,-1206,-1172,-1407,,,-9,,,,,
,339,18,-367,,-159,-237,-440,,-81,-56,,,-234,-115,-28,,,6,,,,,
,1049,-14,687,,698,797,754,,705,743,,,886,841,722,,,-6,,,,,
,-1467,7,3772,,2934,3685,4686,,2576,3020,,,3647,3526,3747,,,-6,,,,,
,-16,11,1767,,856,1310,2370,,546,795,,,1151,1182,1481,,,7,,,,,
,3610,-18,438,,202,147,611,,32,83,,,88,53,132,,,5,,,,,
,-3763,17,-420,,-445,-684,-697,,-515,-718,,,-741,-805,-864,,,1,,,,,
,2696,-19,-4016,,-2989,-3658,-4895,,-2616,-3026,,,-3687,-3496,-3866,,,3,,,,,
,-2906,,-2047,,-1339,-1450,-2455,,-1021,-846,,,-1236,-1132,-1452,,,-2,,,,,
,5389,1,-779,,-295,-273,-496,,-93,-13,,,-155,-87,-150,,,6,,,,,
,-3687,-2,569,,650,715,786,,592,788,,,645,752,877,,,-7,,,,,
,-1293,,4463,,3220,3780,4833,,2696,3056,,,3477,3388,3778,,,-2,,,,,
,1951,-1,2315,,1235,1584,2562,,772,840,,,1158,1072,1105,,,9,,,,,
,-1982,2,-330,,-176,22,284,,-128,-45,,,15,75,120,,,-12,,,,,
,419,1,-590,,-613,-729,-721,,-644,-762,,,-773,-740,-672,,,-4,,,,,
,-671,3,-3239,,-2675,-3474,-4512,,-2452,-2962,,,-3541,-3487,-3860,,,12,,,,,
,253,-3,-1937,,-1086,-1466,-2450,,-631,-763,,,-1125,-1153,-1395,,,,,,,,
,205,-2,-514,,-202,-221,-564,,-64,9,,,-64,-49,-115,,,-4,,,,,
,938,,749,,828,921,796,,788,814,,,944,812,578,,,-5,,,,,
,-1020,-23,4112,,2963,3698,4845,,2598,2993,,,3602,3436,3832,,,5,,,,,
,-137,26,2000,,1072,1351,2485,,825,770,,,1207,1132,1574,,,1,,,,,
,-80,-2,457,,332,272,579,,107,81,,,238,130,1,,,5,,,,,
,1014,-2,-414,,-539,-649,-677,,-762,-777,,,-823,-760,-745,,,-11,,,,,
,-1232,-31,-4003,,-3204,-3719,-4795,,-2712,-3084,,,-3590,-3440,-3735,,,10,,,,,
,182,31,-2114,,-1305,-1619,-2627,,-805,-876,,,-1172,-1137,-1218,,,-12,,,,,
,4087,-25,-294,,-102,-265,-458,,44,-30,,,-142,-124,-204,,,-1,,,,,
,-3678,-6,599,,623,557,567,,641,708,,,868,849,829,,,7,,,,,
,-494,6,3857,,2952,3585,4793,,2560,2938,,,3660,3485,3703,,,-9,,,,,
,54,-6,1847,,995,1384,2326,,691,731,,,1229,1220,1529,,,1,,,,,
,-156,8,288,,102,141,433,,75,21,,,194,131,116,,,5,,,,,
,-128,-2,-899,,-704,-853,-738,,-663,-750,,,-857,-804,-779,,,-4,,,,,
,312,26,-3860,,-2940,-3693,-4789,,-2605,-3005,,,-3580,-3436,-3774,,,1,,,,,
,-172,-26,-2000,,-1150,-1370,-2417,,-753,-750,,,-1274,-1169,-1474,,,20,,,,,
,167,-16,-430,,-205,-69,-474,,-125,27,,,-186,-133,-244,,,-11,,,,,
,-65,10,1018,,864,1035,1020,,692,874,,,686,673,667,,,-4,,,,,
,-303,-15,3967,,3050,3708,4893,,2551,3061,,,3485,3402,3957,,,5,,,,,
,532,23,1665,,971,1237,2202,,632,755,,,1265,1192,1464,,,-8,,,,,
,-526,-18,423,,256,260,432,,100,45,,,109,103,68,,,1,,,,,
,328,13,-642,,-633,-600,-603,,-697,-740,,,-934,-806,-880,,,,,,,,
,279,-13,-3976,,-3184,-3664,-4708,,-2718,-3034,,,-3630,-3438,-3661,,,5,,,,,
,108,16,-1913,,-1024,-1484,-2318,,-548,-761,,,-1069,-1254,-1484,,,-1,,,,,
,-25,-16,-369,,-111,-242,-501,,44,-16,,,-78,-134,-86,,,,,,,,
,161,,681,,776,888,867,,726,793,,,819,779,665,,,-2,,,,,
,521,43,4234,,3182,3925,5000,,2635,3068,,,3682,3506,3740,,,-2,,,,,
,-812,-27,2104,,1106,1499,2579,,672,790,,,1241,1148,1536,,,-8,,,,,
,46,-16,260,,94,31,311,,193,-35,,,325,102,284,,,2,,,,,
,717,16,-655,,-593,-772,-791,,-812,-794,,,-873,-723,-627,,,6,,,,,
,-832,-35,-3859,,-2869,-3555,-4709,,-2523,-3006,,,-3623,-3474,-3819,,,-7,,,,,
,182,17,-1982,,-1086,-1421,-2449,,-663,-832,,,-1389,-1216,-1466,,,3,,,,,
,1512,-20,-450,,-439,-400,-572,,-375,-96,,,-195,-44,98,,,11,,,,,
,-1243,,909,,782,777,921,,818,836,,,1033,838,554,,,2,,,,,
,-801,4,3902,,2958,3558,4827,,2588,3020,,,3509,3436,3848,,,-5,,,,,
,288,-1,1846,,965,1316,2232,,651,713,,,1212,1183,1468,,,8,,,,,
,2334,19,399,,203,243,406,,66,-31,,,226,131,61,,,5,,,,,
,-2357,27,-572,,-641,-742,-740,,-596,-760,,,-696,-757,-851,,,-9,,,,,
,120,-27,-3843,,-2980,-3687,-4797,,-2550,-2965,,,-3649,-3434,-3740,,,-5,,,,,
,5237,-22,-2271,,-1165,-1599,-2551,,-707,-822,,,-1347,-1188,-1278,,,-3,,,,,
,-3687,-9,-416,,-240,-194,-411,,-129,-56,,,-174,-145,-273,,,5,,,,,
,-585,46,762,,663,873,839,,599,746,,,753,782,725,,,5,,,,,
,286,10,3866,,2951,3607,4695,,2503,3019,,,3593,3526,3875,,,-4,,,,,
,944,-14,1898,,1089,1288,2400,,738,777,,,1354,1210,1339,,,-14,,,,,
,-1746,-26,379,,152,67,318,,100,-8,,,218,161,195,,,8,,,,,
,9798,6,-545,,-644,-727,-658,,-590,-753,,,-837,-779,-830,,,3,,,,,
,-3816,-22,-4020,,-3068,-3655,-4853,,-2542,-3021,,,-3535,-3420,-3686,,,4,,,,,
,-3410,9,-2029,,-1103,-1388,-2324,,-667,-750,,,-1281,-1218,-1523,,,4,,,,,
,-2692,-4,-62,,60,-59,-212,,90,71,,,-177,-218,-308,,,-14,,,,,
,131,4,757,,653,681,775,,575,765,,,638,703,873,,,1,,,,,
,-501,4,3929,,2967,3673,4738,,2518,3021,,,3522,3461,3731,,,2,,,,,
,-110,-17,1902,,1098,1513,2346,,777,804,,,1362,1212,1319,,,,,,,,
,154,-4,459,,220,343,601,,-201,39,,,-41,88,156,,,2,,,,,
,5120,21,-850,,-810,-958,-941,,-681,-791,,,-767,-775,-793,,,4,,,,,
,-3880,-13,-3927,,-2942,-3658,-4690,,-2434,-2987,,,-3536,-3483,-3907,,,-8,,,,,
,-1350,-17,-1836,,-1044,-1355,-2421,,-615,-739,,,-1302,-1210,-1275,,,-1,,,,,
,1747,,-285,,-161,-65,-354,,-45,-32,,,-39,-63,-111,,,6,,,,,
,-2115,15,720,,659,794,839,,633,743,,,812,765,652,,,6,,,,,
,95,-19,3880,,3031,3594,4759,,2576,2966,,,3544,3500,3941,,,,,,,,
,,26,1877,,1121,1342,2279,,773,766,,,1262,1155,1425,,,-1,,,,,
,30,-23,340,,-60,146,415,,-184,9,,,171,151,183,,,-5,,,,,
,723,1,-571,,-628,-635,-717,,-686,-793,,,-828,-755,-1008,,,,,,,,
,331,-2,-3934,,-3032,-3683,-4755,,-2615,-3057,,,-3545,-3407,-3667,,,-11,,,,,
,-1087,2,-2201,,-1244,-1700,-2572,,-655,-859,,,-1059,-1100,-1244,,,7,,,,,
,818,-17,-652,,-232,-327,-603,,-42,-12,,,-181,-102,-182,,,12,,,,,
,-812,13,376,,581,669,521,,581,751,,,710,800,900,,,-7,,,,,
,131,7,3823,,3058,3859,4969,,2636,3038,,,3635,3470,3686,,,,,,,,
,-171,,2898,,1582,1892,3075,,984,833,,,1404,1222,1567,,,8,,,,,
,336,-7,1286,,608,500,893,,297,110,,,142,35,230,,,-7,,,,,
,2076,-11,-1535,,-970,-1125,-1228,,-759,-789,,,-820,-803,-821,,,-8,,,,,
,-2341,11,-4679,,-3262,-3911,-5087,,-2755,-3018,,,-3665,-3513,-3860,,,-2,,,,,
,61,-11,-1957,,-1051,-1252,-2157,,-766,-753,,,-1441,-1268,-1516,,,2,,,,,
,888,15,-331,,-245,-131,-338,,-184,7,,,-425,-165,-225,,,7,,,,,
,-336,-15,189,,462,539,603,,568,757,,,775,768,727,,,3,,,,,
,492,2,4245,,3238,3805,4952,,2795,3083,,,3642,3418,3692,,,-7,,,,,
,-571,-2,2096,,1158,1480,2443,,921,823,,,1349,1160,1304,,,2,,,,,
,-200,11,-16,,12,77,230,,-251,-46,,,13,135,292,,,-4,,,,,
,492,-27,-725,,-639,-765,-733,,-758,-780,,,-811,-777,-731,,,2,,,,,
,-297,16,-3594,,-2781,-3617,-4592,,-2361,-3001,,,-3473,-3466,-3654,,,2,,,,,
,203,-20,-2180,,-1134,-1537,-2502,,-620,-801,,,-1139,-1192,-1341,,,4,,,,,
,-605,3,-261,,-23,-41,-273,,73,8,,,59,-48,-265,,,-7,,,,,
,611,19,604,,590,890,867,,593,777,,,853,845,923,,,-1,,,,,
,-362,-22,3681,,2834,3525,4635,,2407,3022,,,3539,3490,3815,,,-4,,,,,
,506,18,1711,,942,1195,2333,,692,810,,,1371,1205,1208,,,3,,,,,
,-845,-15,201,,16,-45,303,,4,-27,,,111,83,154,,,7,,,,,
,93,19,-661,,-725,-890,-931,,-705,-885,,,-943,-866,-889,,,-8,,,,,
,2877,-18,-4153,,-3182,-3784,-4943,,-2674,-3079,,,-3639,-3413,-3812,,,5,,,,,
,-2697,,-2035,,-1135,-1528,-2524,,-688,-822,,,-1212,-1115,-1378,,,4,,,,,
,284,-13,-324,,-141,-299,-541,,-14,-37,,,-196,-93,-138,,,-6,,,,,
,-336,12,543,,476,600,630,,562,743,,,790,829,920,,,,,,,,
,-319,-11,3952,,3020,3698,4873,,2544,2997,,,3680,3535,3830,,,3,,,,,
,37,8,1909,,1065,1449,2437,,676,716,,,1207,1218,1517,,,-9,,,,,
,120,3,733,,310,398,698,,108,67,,,20,77,211,,,6,,,,,
,-77,-3,-455,,-500,-681,-601,,-571,-702,,,-795,-810,-751,,,8,,,,,
,583,-9,-4006,,-3019,-3700,-4854,,-2533,-2983,,,-3511,-3498,-3869,,,2,,,,,
,-920,5,-1886,,-1098,-1363,-2388,,-677,-736,,,-1278,-1207,-1461,,,11,,,,,
,676,12,-155,,-19,67,-312,,128,65,,,-95,-137,-410,,,-2,,,,,
,407,-8,551,,643,736,657,,755,743,,,955,797,823,,,-11,,,,,
,-351,,4015,,3104,3595,4791,,2347,2960,,,3470,3478,3938,,,-3,,,,,
,945,4,1851,,1015,1265,2344,,777,811,,,1261,1161,1429,,,-5,,,,,
,-1033,-4,405,,125,250,470,,-4,82,,,-23,3,28,,,-7,,,,,
,-392,,-956,,-834,-733,-816,,-845,-799,,,-937,-807,-834,,,2,,,,,
,599,,-3730,,-2855,-3451,-4591,,-2476,-3003,,,-3456,-3415,-3892,,,7,,,,,
,-489,19,-2440,,-1199,-1586,-2559,,-589,-767,,,-1235,-1209,-1332,,,-2,,,,,
,-594,-28,-998,,-348,-410,-680,,-70,-23,,,-114,-110,-23,,,-12,,,,,
,949,-20,1746,,1068,1201,1137,,702,841,,,794,734,685,,,13,,,,,
,37,7,4842,,3396,4123,5102,,2748,3076,,,3594,3454,3599,,,7,,,,,
,-422,13,1992,,873,1378,2330,,567,743,,,1206,1190,1337,,,-2,,,,,
,522,-18,484,,85,73,465,,-67,-3,,,13,77,284,,,-1,,,,,
,-91,18,-651,,-702,-891,-841,,-711,-805,,,-817,-806,-840,,,,,,,,
,-303,,-3982,,-3122,-3770,-4861,,-2715,-3115,,,-3540,-3418,-3607,,,-4,,,,,
,688,,-1378,,-923,-1127,-2062,,-688,-808,,,-1202,-1167,-1372,,,-7,,,,,
,-772,-19,-130,,31,-43,-295,,53,5,,,-87,-23,-206,,,12,,,,,
,603,-9,490,,616,670,706,,678,745,,,898,921,1058,,,-1,,,,,
,1972,13,3735,,2989,3537,4694,,2687,3003,,,3777,3485,3870,,,-1,,,,,
,762,15,1945,,1144,1481,2458,,845,813,,,1310,1195,1250,,,,,,,,
,-3191,-30,697,,328,427,605,,85,52,,,41,104,97,,,-5,,,,,
,1051,2,-618,,-618,-672,-669,,-608,-729,,,-701,-818,-851,,,-6,,,,,
,-1348,10,-4023,,-2999,-3736,-4842,,-2579,-2997,,,-3599,-3508,-3669,,,-5,,,,,
,11,-1,-1956,,-1154,-1524,-2363,,-595,-784,,,-1241,-1208,-1228,,,5,,,,,
,297,,-243,,-130,-178,-363,,-60,-42,,,-97,-58,46,,,5,,,,,
,-197,-9,870,,785,960,919,,394,766,,,620,792,681,,,11,,,,,
,-102,15,3852,,2895,3691,4877,,2504,2975,,,3455,3463,3817,,,-4,,,,,
,686,-17,1979,,1130,1332,2402,,717,805,,,1123,1159,1432,,,-10,,,,,
,-408,11,146,,-62,-118,259,,2,-39,,,209,163,243,,,,,,,,
,46,-10,-911,,-802,-853,-844,,-640,-777,,,-716,-785,-1057,,,-2,,,,,
,102,9,-3810,,-2893,-3450,-4677,,-2497,-2968,,,-3654,-3522,-3917,,,17,,,,,
,392,-9,-1907,,-1099,-1344,-2303,,-653,-761,,,-1254,-1188,-1317,,,-13,,,,,
,-611,-1,-253,,-94,-274,-565,,68,-26,,,-55,-138,-143,,,4,,,,,
,596,-20,633,,733,673,613,,851,745,,,1037,788,498,,,7,,,,,
,-295,-3,3718,,2855,3546,4691,,2506,2956,,,3593,3491,3829,,,-6,,,,,
,1965,4,2122,,1198,1637,2497,,654,838,,,1069,1161,1452,,,-1,,,,,
,-2076,3,432,,310,350,590,,88,103,,,57,18,19,,,-6,,,,,
,3861,-4,-550,,-604,-815,-664,,-656,-735,,,-804,-847,-862,,,-4,,,,,
,-2676,1,-4136,,-3123,-3884,-4950,,-2611,-2999,,,-3509,-3437,-3768,,,9,,,,,
,-727,,-2051,,-1148,-1518,-2527,,-645,-812,,,-1183,-1193,-1526,,,-6,,,,,
,307,,-301,,-171,-145,-465,,-132,-58,,,-235,-82,-85,,,6,,,,,
,-633,-13,559,,652,705,727,,668,744,,,699,783,799,,,5,,,,,
,753,,4098,,2965,3582,4823,,2524,2993,,,3666,3497,3896,,,-4,,,,,
,-166,9,1896,,947,1247,2347,,587,777,,,1273,1191,1457,,,6,,,,,
,-552,3,261,,176,170,400,,81,30,,,191,154,91,,,4,,,,,
,344,1,-959,,-827,-793,-847,,-720,-857,,,-755,-751,-679,,,2,,,,,
,-50,-1,-4088,,-3127,-3759,-4905,,-2512,-3079,,,-3427,-3425,-3742,,,-1,,,,,
,356,1,-1714,,-835,-1324,-2203,,-796,-729,,,-1372,-1145,-1438,,,-1,,,,,
,-1313,-13,-350,,-75,-215,-369,,33,-15,,,-170,-149,-225,,,-7,,,,,
,312,-9,650,,687,861,908,,713,787,,,737,720,749,,,1,,,,,
,270,21,4033,,3002,3764,4776,,2533,2942,,,3517,3492,3894,,,-4,,,,,
,-159,-12,2032,,1012,1410,2468,,634,768,,,1265,1191,1505,,,15,,,,,
,4511,-1,470,,139,121,495,,57,18,,,155,118,190,,,-17,,,,,
,-3549,1,-755,,-680,-866,-778,,-630,-749,,,-779,-752,-662,,,6,,,,,
,-920,13,-4013,,-3042,-3681,-4870,,-2582,-2994,,,-3570,-3434,-3658,,,3,,,,,
,4320,-13,-1818,,-1036,-1259,-2316,,-663,-749,,,-1264,-1226,-1673,,,-8,,,,,
,-3609,-22,-257,,-62,-56,-247,,-34,12,,,-93,-67,-45,,,6,,,,,
,-310,22,740,,817,794,853,,792,795,,,993,813,886,,,,,,,,
,39,-5,4148,,3163,3720,4878,,2710,3030,,,3652,3428,3741,,,-2,,,,,
,-477,5,1708,,903,1277,2250,,567,745,,,1129,1139,1395,,,-3,,,,,
,299,-15,484,,179,324,475,,-37,27,,,18,17,-12,,,1,,,,,
,655,11,-614,,-630,-674,-708,,-693,-752,,,-944,-810,-679,,,4,,,,,
,-1007,4,-3901,,-2884,-3691,-4791,,-2487,-2998,,,-3616,-3539,-3751,,,-5,,,,,
,-189,-17,-1879,,-994,-1422,-2420,,-548,-722,,,-1120,-1174,-1518,,,9,,,,,
,1182,17,-375,,-256,-142,-378,,-132,40,,,-176,-97,-201,,,,,,,,
,-719,-17,739,,719,890,796,,615,788,,,692,785,672,,,-7,,,,,
,1093,16,4023,,3072,3700,4816,,2603,3011,,,3609,3495,3828,,,-1,,,,,
,-1360,-21,1863,,1071,1312,2367,,733,791,,,1404,1256,1443,,,-4,,,,,
,280,-8,578,,402,275,603,,273,81,,,291,66,-170,,,10,,,,,
,-370,11,-524,,-580,-652,-671,,-657,-743,,,-947,-820,-609,,,1,,,,,
,-24,,-3971,,-3020,-3560,-4754,,-2588,-3005,,,-3621,-3522,-4042,,,-4,,,,,
,1025,1,-2049,,-1212,-1489,-2433,,-718,-832,,,-1193,-1167,-1382,,,-10,,,,,
,-1211,1,-359,,-153,-250,-498,,-38,-29,,,-112,-98,-136,,,5,,,,,
,482,-5,438,,594,562,588,,627,708,,,807,798,897,,,8,,,,,
,22,-1,4024,,3069,3703,4852,,2569,3010,,,3477,3447,3781,,,5,,,,,
,188,5,1839,,891,1346,2258,,581,723,,,1148,1184,1424,,,-4,,,,,
,-187,-4,280,,44,147,346,,5,5,,,208,156,129,,,-10,,,,,
,2204,,-637,,-630,-778,-678,,-976,-734,,,-1110,-784,-537,,,4,,,,,
,-2656,-10,-4025,,-3091,-3842,-4857,,-2497,-3066,,,-3468,-3488,-3856,,,-1,,,,,
,185,2,-2000,,-1070,-1460,-2376,,-574,-792,,,-1192,-1258,-1488,,,1,,,,,
,2824,,-587,,-309,-211,-538,,-187,-76,,,-212,-67,-57,,,5,,,,,
,-2826,21,663,,664,890,909,,637,758,,,762,825,720,,,-7,,,,,
,743,-40,4189,,3163,3735,4964,,2732,3065,,,3713,3484,3817,,,11,,,,,
,-392,19,2106,,1098,1327,2440,,707,782,,,1288,1126,1387,,,-9,,,,,
,484,-22,224,,142,70,300,,30,17,,,144,142,139,,,2,,,,,
,308,22,-517,,-653,-695,-787,,-662,-740,,,-772,-715,-681,,,4,,,,,
,-1380,,-4030,,-3079,-3741,-4870,,-2590,-3058,,,-3541,-3489,-3700,,,-9,,,,,
,1945,-14,-1700,,-954,-1340,-2138,,-572,-775,,,-1188,-1169,-1369,,,5,,,,,
,-90,14,-453,,-125,-201,-341,,,9,,,-211,-156,-43,,,4,,,,,
,3281,2,824,,848,957,923,,759,832,,,825,750,658,,,-10,,,,,
,-3200,-2,3964,,2987,3775,4779,,2503,2986,,,3577,3452,3820,,,2,,,,,
,-1220,-15,1917,,1048,1409,2391,,630,754,,,1210,1148,1384,,,-8,,,,,
,-365,-7,371,,139,36,402,,30,6,,,133,129,138,,,,,,,,
,-92,,-661,,-624,-840,-774,,-626,-773,,,-761,-759,-813,,,13,,,,,
,-159,-13,-3974,,-2978,-3628,-4918,,-2507,-3031,,,-3544,-3468,-3919,,,-1,,,,,
,262,,-2015,,-1189,-1398,-2473,,-809,-805,,,-1360,-1200,-1408,,,,,,,,
,2886,16,-480,,-201,-142,-418,,-200,1,,,-293,-150,-175,,,6,,,,,
,-1603,,461,,677,755,754,,712,790,,,873,794,654,,,-11,,,,,
,-1092,-3,3541,,2748,3367,4501,,2498,2962,,,3472,3464,3946,,,-9,,,,,
,-132,9,1637,,907,1217,2084,,665,800,,,1242,1184,1335,,,9,,,,,
,6522,-18,595,,272,374,632,,97,9,,,187,101,57,,,5,,,,,
,-3252,,147,,-362,-478,-433,,-527,-818,,,-686,-706,-665,,,-6,,,,,
,-2777,,-4072,,-3107,-3747,-4782,,-2660,-3026,,,-3558,-3427,-3715,,,,,,,,
,-521,,-2595,,-1324,-1634,-2559,,-825,-777,,,-1297,-1205,-1404,,,6,,,,,
,106,,-921,,-417,-274,-474,,-297,-57,,,-337,-139,50,,,5,,,,,
,-468,-1,1077,,945,1106,982,,851,844,,,857,709,437,,,,,,,,
,502,-17,3544,,2878,3614,4754,,2534,2998,,,3575,3480,3887,,,-7,,,,,
,713,5,1528,,962,1222,2301,,679,768,,,1329,1224,1511,,,-13,,,,,
,-941,-1,380,,212,118,443,,130,58,,,208,55,20,,,10,,,,,
,85,18,-648,,-733,-858,-876,,-694,-789,,,-808,-752,-691,,,-9,,,,,
,698,-4,-4183,,-3185,-3729,-4925,,-2666,-3061,,,-3657,-3431,-3687,,,11,,,,,
,-683,-23,-1862,,-1060,-1287,-2245,,-678,-796,,,-1218,-1191,-1410,,,2,,,,,
,5,6,-334,,-166,-185,-327,,-2,-48,,,-44,-155,-118,,,-4,,,,,
,41,17,655,,641,674,785,,829,770,,,769,697,820,,,-3,,,,,
,262,,4254,,3248,3856,5002,,2460,3045,,,3415,3534,4061,,,14,,,,,
,-398,-1,2065,,1115,1518,2544,,665,760,,,1301,1284,1582,,,-5,,,,,
,303,-3,352,,125,210,468,,52,-15,,,182,165,180,,,1,,,,,
,366,-13,-451,,-433,-689,-684,,-436,-771,,,-586,-758,-990,,,-13,,,,,
,-1058,3,-4091,,-3016,-3776,-4803,,-2526,-3027,,,-3532,-3485,-3705,,,6,,,,,
,199,-18,-2152,,-1183,-1503,-2500,,-790,-812,,,-1370,-1167,-1382,,,10,,,,,
,164,1,-270,,-130,-70,-429,,-72,24,,,-355,-148,-275,,,-8,,,,,
,444,,878,,608,859,806,,715,733,,,911,813,614,,,-6,,,,,
,31,12,3777,,2966,3560,4810,,2548,2995,,,3533,3440,3906,,,-2,,,,,
,-41,-2,1764,,1056,1210,2341,,679,788,,,1227,1148,1406,,,2,,,,,
,-85,-9,487,,269,267,510,,44,60,,,33,47,66,,,11,,,,,
,-365,9,-588,,-537,-571,-700,,-634,-752,,,-801,-766,-900,,,6,,,,,
,142,4,-3948,,-2960,-3651,-4815,,-2537,-3046,,,-3493,-3435,-3745,,,-8,,,,,
,-291,-2,-1804,,-1032,-1420,-2289,,-670,-812,,,-1288,-1242,-1338,,,3,,,,,
,1614,-13,-404,,-186,-293,-483,,-4,-30,,,-38,-107,-227,,,-7,,,,,
,-899,11,408,,487,658,651,,560,707,,,827,806,741,,,-4,,,,,
,228,-28,3970,,2956,3783,4862,,2484,3038,,,3534,3521,3782,,,8,,,,,
,15,19,1908,,1033,1407,2369,,663,795,,,1234,1230,1469,,,-1,,,,,
,-100,,400,,225,162,504,,183,24,,,214,80,138,,,2,,,,,
,-584,-44,-566,,-732,-859,-732,,-820,-775,,,-744,-784,-702,,,-1,,,,,
,-456,25,-4083,,-3038,-3783,-4975,,-2586,-3051,,,-3560,-3515,-3720,,,-17,,,,,
,804,15,-1892,,-1014,-1235,-2250,,-683,-715,,,-1474,-1271,-1472,,,2,,,,,
,-1199,-11,-259,,-124,-112,-354,,84,-16,,,-135,-140,-267,,,11,,,,,
,-199,15,697,,683,739,642,,553,736,,,863,853,856,,,20,,,,,
,865,,3839,,3024,3560,4754,,2683,3007,,,3657,3477,3931,,,-5,,,,,
,227,-1,1969,,1001,1403,2510,,698,805,,,1316,1232,1387,,,-11,,,,,
,-197,-18,237,,9,161,345,,-57,11,,,29,111,194,,,8,,,,,
,519,-34,-527,,-642,-678,-743,,-649,-753,,,-837,-782,-844,,,3,,,,,
,-975,37,-3879,,-2982,-3704,-4782,,-2509,-2998,,,-3537,-3400,-3701,,,4,,,,,
,321,-3,-1977,,-1067,-1536,-2421,,-692,-792,,,-1250,-1186,-1340,,,,,,,,
,427,-1,-420,,-194,-221,-513,,-20,-19,,,-116,-123,-163,,,-12,,,,,
,-286,1,677,,675,841,654,,687,694,,,923,823,679,,,-8,,,,,
,647,-35,4046,,3065,3745,4809,,2601,3014,,,3661,3521,3739,,,-6,,,,,
,-633,34,1933,,996,1332,2462,,646,745,,,1187,1139,1503,,,4,,,,,
,2455,1,99,,-10,-46,280,,26,-50,,,139,80,259,,,,,,,,
,-2491,-25,-555,,-562,-704,-678,,-638,-724,,,-840,-840,-1037,,,7,,,,,
,502,24,-3865,,-2949,-3497,-4782,,-2707,-3035,,,-3765,-3493,-3853,,,-2,,,,,
,119,-35,-1857,,-986,-1159,-2140,,-746,-750,,,-1315,-1171,-1372,,,-10,,,,,
,-969,35,-212,,-18,-54,-251,,-2,9,,,-45,-93,-129,,,15,,,,,
,-88,3,588,,745,675,677,,761,803,,,893,763,732,,,-3,,,,,
,232,-36,4099,,3140,3713,4711,,2677,3103,,,3532,3398,3625,,,3,,,,,
,100,-2,2270,,1048,1608,2613,,674,858,,,1045,1097,1296,,,-7,,,,,
,360,-18,396,,188,214,437,,101,12,,,161,99,28,,,-10,,,,,
,-532,20,-663,,-741,-867,-786,,-687,-831,,,-767,-787,-620,,,17,,,,,
,209,,-4198,,-3121,-3882,-4931,,-2565,-3062,,,-3480,-3424,-3891,,,-3,,,,,
,9536,-18,-1999,,-1128,-1460,-2366,,-809,-800,,,-1410,-1218,-1298,,,-7,,,,,
,-3199,-4,-491,,-248,-208,-526,,-233,-28,,,-303,-142,-43,,,3,,,,,
,-3842,3,543,,643,819,765,,655,788,,,856,769,563,,,7,,,,,
,-2289,19,3658,,3008,3530,4593,,2629,2993,,,3602,3518,3955,,,-2,,,,,
,-215,-1,1814,,963,1163,2150,,740,721,,,1397,1199,1497,,,-8,,,,,
,954,-20,357,,154,192,570,,8,-12,,,144,126,295,,,2,,,,,
,31,2,245,,-276,-319,-315,,-696,-716,,,-907,-713,-604,,,1,,,,,
,-916,11,-3849,,-3115,-3743,-4977,,-2439,-3065,,,-3321,-3436,-3863,,,,,,,,
,-279,-24,-2538,,-1285,-1653,-2550,,-641,-824,,,-1209,-1262,-1596,,,-8,,,,,
,155,-1,-608,,-140,-235,-304,,-9,-9,,,-315,-187,-79,,,12,,,,,
,1204,2,661,,702,774,759,,695,783,,,833,792,787,,,-7,,,,,
,-1066,12,3920,,3049,3720,4711,,2573,3021,,,3564,3471,3753,,,3,,,,,
