Packet Number (n), App Timestamp (us),Sensor Timestamp (us),Fp1 (uV),Disabled (uV),F3 (uV),Fz (uV),F4 (uV),Disabled (uV),C3 (uV),Cz (uV),C4 (uV),Disabled (uV),P3 (uV),Pz (uV),P4 (uV),Disabled (uV),Disabled (uV),Ref (uV),AccX (mg),AccY (mg),AccZ (mg),Event A,Event B
8247.00,320798895.50,1396361968.00,-22907.99,0.00,-19479.27,-5880.30,-28323.28,0.00,-19336.16,-3349.32,-187499.98,0.00,-29902.61,-4820.85,-29641.25,0.00,0.00,-13.30,0.00,0.00,0.00,0.00,0.00
,1085,-13,666,,508,747,646,,824,862,,,815,770,1003,,,,,,,,
,-1140,-5,3651,,2797,3501,3415,,3845,3951,,,3705,2754,3591,,,-9,,,,,
,2285,4,1076,,707,994,1136,,1303,1197,,,1230,566,1334,,,9,,,,,
,-1900,1,230,,-112,205,244,,94,143,,,13,-119,40,,,-5,,,,,
,-53,-13,-647,,-588,-732,-610,,-862,-888,,,-858,-737,-765,,,,,,,,
,-477,12,-3385,,-2509,-3401,-3297,,-3899,-3955,,,-3482,-2606,-3788,,,12,,,,,
,111,-4,-911,,-450,-854,-977,,-1228,-1130,,,-1245,-587,-1549,,,,,,,,
,10,-8,-70,,-23,28,-70,,-135,7,,,-216,-29,-219,,,-9,,,,,
,26,13,659,,543,799,604,,867,913,,,658,665,772,,,-3,,,,,
,356,-13,3399,,2444,3295,3175,,3985,3851,,,3687,2628,3751,,,1,,,,,
,2772,21,1197,,690,896,1066,,1383,1134,,,1387,630,1352,,,5,,,,,
,-2670,-27,25,,102,3,25,,55,35,,,240,131,149,,,-1,,,,,
,1205,-38,-809,,-662,-781,-751,,-885,-884,,,-854,-695,-642,,,3,,,,,
,-1628,,-3475,,-2612,-3387,-3306,,-3859,-3896,,,-3566,-2676,-3827,,,,,,,,
,465,25,-1015,,-698,-951,-1088,,-1269,-1212,,,-1267,-677,-1551,,,-1,,,,,
,-462,3,-25,,-30,-35,4,,-152,-70,,,-97,28,-77,,,1,,,,,
,-131,3,730,,765,850,690,,779,911,,,705,817,928,,,-4,,,,,
,261,-6,3286,,2279,3341,3276,,3742,3873,,,3490,2732,3994,,,5,,,,,
,1106,-1,1131,,681,994,1170,,1551,1234,,,1359,614,1480,,,4,,,,,
,319,12,125,,10,87,222,,171,90,,,128,-44,184,,,-6,,,,,
,-1685,-12,-859,,-744,-948,-715,,-937,-1035,,,-701,-725,-758,,,8,,,,,
,63,-36,-3433,,-2403,-3380,-3271,,-3985,-3890,,,-3669,-2622,-3875,,,,,,,,
,187,37,-988,,-495,-757,-1032,,-1248,-1090,,,-1466,-651,-1523,,,-18,,,,,
,-307,,95,,17,61,-83,,23,-55,,,-50,-19,-115,,,4,,,,,
,369,1,752,,665,840,705,,966,926,,,837,688,731,,,6,,,,,
,-191,-2,3551,,2526,3460,3429,,3800,3933,,,3561,2643,3739,,,-3,,,,,
,-128,5,1318,,747,985,1240,,1181,1196,,,1180,651,1470,,,-4,,,,,
,167,-40,271,,160,129,122,,158,86,,,63,-4,184,,,-2,,,,,
,-176,-14,-818,,-692,-859,-782,,-794,-963,,,-703,-661,-724,,,-4,,,,,
,629,49,-3525,,-2580,-3456,-3331,,-3867,-3934,,,-3493,-2644,-3871,,,10,,,,,
,-433,-24,-1146,,-600,-1058,-1242,,-1278,-1219,,,-1217,-608,-1493,,,10,,,,,
,-101,-30,-55,,-59,-3,-143,,-162,-18,,,-187,40,-373,,,-6,,,,,
,1804,21,823,,711,937,718,,908,1043,,,699,690,795,,,-7,,,,,
,-962,,3497,,2416,3372,3320,,3882,3890,,,3606,2657,3872,,,-3,,,,,
,-989,-19,1034,,464,823,1100,,1305,1075,,,1334,646,1522,,,9,,,,,
,26,-1,73,,58,-26,60,,154,5,,,332,38,28,,,3,,,,,
,490,19,-767,,-513,-821,-769,,-861,-916,,,-646,-606,-842,,,-3,,,,,
,-324,-1,-3452,,-2476,-3303,-3195,,-3944,-3829,,,-3804,-2793,-3847,,,,,,,,
,46,-18,-998,,-553,-846,-1055,,-1254,-1118,,,-1494,-710,-1403,,,2,,,,,
,-174,-2,-295,,-241,-301,-386,,-98,-152,,,79,34,-186,,,2,,,,,
,492,1,490,,407,493,448,,779,785,,,912,817,881,,,-11,,,,,
,-528,2,3325,,2442,3231,3164,,3744,3912,,,3527,2751,4032,,,5,,,,,
,205,-2,961,,511,825,953,,1380,1180,,,1394,666,1502,,,12,,,,,
,200,-11,162,,42,69,28,,202,16,,,167,38,299,,,-3,,,,,
,-424,7,-729,,-620,-761,-671,,-874,-960,,,-916,-756,-622,,,-1,,,,,
,46,3,-3480,,-2327,-3325,-3144,,-3840,-3948,,,-3607,-2674,-3941,,,-3,,,,,
,311,2,-938,,-675,-829,-863,,-1466,-1140,,,-1370,-545,-1513,,,-7,,,,,
,-234,1,-19,,-13,94,111,,-169,36,,,-219,9,-25,,,7,,,,,
,-16,-2,885,,662,953,930,,930,983,,,883,658,898,,,5,,,,,
,84,-11,3654,,2575,3499,3484,,3989,3930,,,3761,2655,3970,,,5,,,,,
,-187,-20,1054,,638,868,1118,,1255,1129,,,1337,648,1324,,,2,,,,,
,262,20,-163,,-15,-5,35,,-49,64,,,-60,31,38,,,,,,,,
,-219,-18,-1261,,-877,-919,-886,,-923,-873,,,-983,-744,-841,,,-10,,,,,
,58,20,-3299,,-2435,-3394,-3339,,-3660,-3902,,,-3454,-2682,-3852,,,-12,,,,,
,174,17,-422,,-260,-709,-945,,-1002,-1175,,,-1094,-606,-1401,,,14,,,,,
,-17,-36,264,,117,44,-38,,-111,-73,,,-143,15,-135,,,-10,,,,,
,223,-1,616,,655,821,666,,779,936,,,636,714,774,,,5,,,,,
,-317,-2,2862,,2311,3276,3119,,3861,3985,,,3569,2701,3793,,,10,,,,,
,62,1,1440,,689,955,1180,,1436,1151,,,1347,628,1467,,,,,,,,
,-184,-11,-10,,-95,-112,-78,,134,-6,,,304,80,233,,,-9,,,,,
,276,,-1025,,-764,-962,-795,,-998,-1003,,,-775,-666,-775,,,-4,,,,,
,-202,,-3234,,-2429,-3310,-3178,,-4104,-3910,,,-3823,-2681,-3805,,,-8,,,,,
,-91,11,-1264,,-695,-1026,-1307,,-1254,-1175,,,-1255,-639,-1437,,,1,,,,,
,94,-11,-270,,26,-92,-254,,84,-93,,,-2,-73,-375,,,-7,,,,,
,258,10,777,,766,913,752,,999,926,,,865,699,679,,,10,,,,,
,-331,-10,3588,,2414,3337,3279,,3767,3859,,,3641,2733,3962,,,-2,,,,,
,804,12,1073,,646,898,1079,,1370,1220,,,1370,706,1391,,,2,,,,,
,-822,-1,217,,78,134,149,,244,166,,,102,-20,181,,,3,,,,,
,134,-31,-891,,-702,-866,-773,,-822,-935,,,-624,-714,-838,,,11,,,,,
,1355,-2,-3479,,-2562,-3421,-3297,,-3891,-3930,,,-3699,-2682,-3861,,,-16,,,,,
,-1211,14,-1125,,-690,-979,-1090,,-1476,-1182,,,-1406,-625,-1419,,,4,,,,,
,-20,-13,-165,,20,-28,-106,,-177,-75,,,-193,39,-156,,,1,,,,,
,51,1,751,,713,957,813,,893,976,,,755,684,719,,,14,,,,,
,-105,20,3354,,2559,3448,3332,,3973,3929,,,3635,2637,3851,,,-13,,,,,
,-103,-1,1189,,697,930,1189,,1365,1187,,,1187,594,1614,,,3,,,,,
,-169,-30,264,,14,53,189,,20,32,,,133,66,352,,,-11,,,,,
,15,-1,-746,,-805,-828,-676,,-1034,-900,,,-793,-725,-899,,,3,,,,,
,-38,-1,-3449,,-2380,-3236,-3269,,-3794,-3851,,,-3719,-2813,-4169,,,13,,,,,
,351,3,-1033,,-500,-802,-1087,,-1149,-1160,,,-1391,-669,-1451,,,5,,,,,
,-254,8,-45,,-21,-33,-164,,35,-56,,,-143,7,-214,,,-14,,,,,
,604,2,642,,730,827,701,,869,920,,,868,760,687,,,-5,,,,,
,-607,,3539,,2693,3502,3406,,3893,3954,,,3558,2730,3934,,,2,,,,,
,106,-11,1097,,565,941,1154,,1348,1227,,,1213,577,1501,,,2,,,,,
,1511,10,97,,-10,40,76,,254,72,,,254,-20,30,,,-2,,,,,
,-1444,8,-682,,-635,-799,-680,,-864,-975,,,-875,-773,-813,,,3,,,,,
,-263,-7,-3586,,-2562,-3456,-3279,,-4123,-3959,,,-3656,-2645,-3928,,,9,,,,,
,131,,-1276,,-712,-960,-1115,,-1442,-1172,,,-1263,-575,-1518,,,-5,,,,,
,1522,-10,-123,,-137,-38,-103,,-181,-68,,,-214,60,37,,,3,,,,,
,-1352,12,691,,566,705,587,,878,870,,,811,759,812,,,2,,,,,
,-233,-13,3497,,2521,3324,3207,,3962,3830,,,3761,2724,3779,,,-3,,,,,
,106,,1195,,678,911,1150,,1250,1139,,,1136,643,1434,,,-4,,,,,
,10,1,259,,251,164,125,,136,129,,,120,,174,,,-5,,,,,
,608,,-913,,-956,-935,-819,,-912,-958,,,-802,-759,-721,,,-3,,,,,
,-803,,-3649,,-2724,-3529,-3429,,-3882,-3947,,,-3582,-2751,-4005,,,2,,,,,
,600,-1,-997,,-611,-959,-1151,,-1320,-1175,,,-1326,-650,-1479,,,16,,,,,
,-607,-20,-110,,14,-74,-156,,-194,-12,,,-171,17,-183,,,-5,,,,,
,50,-13,747,,664,871,701,,787,1001,,,791,753,816,,,-5,,,,,
,101,14,3553,,2553,3505,3365,,3985,3935,,,3720,2687,3835,,,1,,,,,
,-17,-1,969,,505,796,991,,1290,1061,,,1242,590,1444,,,-2,,,,,
,60,-10,204,,84,66,162,,142,-3,,,134,17,116,,,4,,,,,
,-47,,-850,,-631,-888,-749,,-931,-937,,,-671,-566,-725,,,-1,,,,,
,-71,10,-3689,,-2570,-3475,-3437,,-3885,-3870,,,-3713,-2728,-3921,,,1,,,,,
,47,-11,-845,,-601,-833,-1022,,-1253,-1067,,,-1336,-718,-1530,,,2,,,,,
,163,12,-125,,1,-156,-224,,13,-76,,,-40,47,-14,,,6,,,,,
,-217,,781,,394,664,611,,840,806,,,943,798,888,,,1,,,,,
,692,-8,3495,,2484,3298,3270,,3725,3844,,,3559,2806,4063,,,-5,,,,,
,-375,-2,1194,,719,942,1111,,1280,1220,,,1129,566,1296,,,-2,,,,,
,-161,8,29,,30,87,162,,294,127,,,293,35,153,,,-12,,,,,
,-113,-10,-884,,-822,-830,-601,,-892,-954,,,-888,-764,-592,,,2,,,,,
,-5,-21,-3399,,-2515,-3370,-3167,,-4000,-3907,,,-3655,-2683,-3759,,,5,,,,,
,115,20,-1094,,-466,-938,-1116,,-1308,-1150,,,-1252,-548,-1459,,,8,,,,,
,15,-17,-34,,1,-8,-88,,-213,-27,,,-267,-27,-151,,,4,,,,,
,-163,20,635,,500,754,622,,869,891,,,845,632,667,,,-13,,,,,
,308,-22,3552,,2610,3467,3319,,4123,3951,,,3633,2579,3591,,,-7,,,,,
,-219,-10,1100,,575,870,1116,,1342,1110,,,1286,649,1493,,,2,,,,,
,-139,11,119,,62,62,152,,9,82,,,144,87,173,,,9,,,,,
,-30,,-965,,-733,-835,-720,,-907,-878,,,-916,-757,-763,,,8,,,,,
,36,,-3482,,-2648,-3392,-3256,,-3892,-3900,,,-3709,-2731,-3928,,,-6,,,,,
,1986,,-932,,-602,-894,-1088,,-1240,-1163,,,-1254,-646,-1531,,,-10,,,,,
,-1918,25,-214,,-40,-31,-44,,-148,-47,,,-134,-32,-137,,,11,,,,,
,295,-24,789,,930,937,826,,849,958,,,749,753,753,,,,,,,,
,-332,-13,3713,,2655,3546,3327,,3904,3932,,,3653,2690,3797,,,-4,,,,,
,-43,,1302,,782,1068,1127,,1516,1191,,,1275,578,1347,,,-1,,,,,
,60,12,9,,-262,-52,66,,-32,16,,,152,11,231,,,-4,,,,,
,56,-11,-679,,-667,-830,-658,,-1017,-937,,,-953,-740,-740,,,-2,,,,,
,-172,-1,-3654,,-2440,-3465,-3423,,-3839,-3972,,,-3547,-2649,-4117,,,3,,,,,
,148,-22,-1122,,-538,-840,-1044,,-1275,-1104,,,-1337,-619,-1420,,,-3,,,,,
,-65,23,82,,46,108,85,,-16,27,,,-260,-13,15,,,8,,,,,
,-13,-23,890,,710,902,816,,1016,937,,,959,722,767,,,,,,,,
,-32,26,3417,,2462,3299,3274,,3875,3855,,,3751,2751,3933,,,,,,,,
,281,-23,947,,514,806,1085,,1125,1107,,,1188,647,1529,,,6,,,,,
,-26,1,166,,70,73,78,,111,83,,,148,55,283,,,4,,,,,
,-304,1,-822,,-730,-908,-769,,-814,-976,,,-691,-654,-763,,,-11,,,,,
,48,-13,-3600,,-2747,-3559,-3396,,-3858,-4000,,,-3504,-2663,-3859,,,,,,,,
,16526,-2,-1079,,-589,-1005,-1216,,-1282,-1214,,,-1194,-512,-1404,,,6,,,,,
,-3678,3,93,,235,102,-54,,-54,-5,,,-295,-21,-298,,,-8,,,,,
,-3877,10,829,,784,934,732,,970,1020,,,832,647,634,,,2,,,,,
,-3805,7,3431,,2549,3399,3312,,4046,3940,,,3766,2598,3770,,,-2,,,,,
,-3827,-19,928,,564,796,1036,,1388,1123,,,1325,560,1494,,,7,,,,,
,-987,11,196,,-215,-29,182,,-171,-12,,,-25,15,137,,,-4,,,,,
,-320,-9,-544,,-582,-737,-556,,-1082,-895,,,-1099,-644,-661,,,-6,,,,,
,3600,-1,-3637,,-2653,-3460,-3334,,-3892,-3894,,,-3666,-2630,-3742,,,-9,,,,,
,-1987,33,-918,,-493,-831,-1040,,-1128,-1122,,,-1319,-695,-1640,,,10,,,,,
,-1686,-44,111,,91,95,86,,-47,-8,,,-215,-79,-142,,,,,,,,
,784,24,839,,633,776,742,,806,860,,,982,816,882,,,7,,,,,
,-590,-12,3514,,2608,3379,3314,,3810,3906,,,3672,2717,3852,,,-1,,,,,
,-192,-2,1096,,611,961,1217,,1324,1223,,,1102,571,1582,,,-12,,,,,
,1944,-16,99,,-26,12,92,,195,42,,,90,-80,38,,,1,,,,,
,-1813,-7,-1048,,-909,-1023,-879,,-931,-996,,,-734,-708,-866,,,10,,,,,
,36,24,-3729,,-2606,-3535,-3465,,-3877,-3960,,,-3593,-2675,-4019,,,-14,,,,,
,-159,-30,-785,,-346,-814,-1115,,-991,-1132,,,-1200,-653,-1687,,,-5,,,,,
,213,-1,468,,231,223,31,,-201,32,,,-126,-5,-56,,,13,,,,,
,-219,11,856,,601,824,701,,672,897,,,837,741,856,,,5,,,,,
,17,-10,3424,,2445,3354,3299,,3977,3890,,,3504,2616,3836,,,-6,,,,,
,-63,10,937,,572,794,979,,1217,1109,,,1256,668,1398,,,1,,,,,
,7,,245,,248,127,175,,121,90,,,171,60,32,,,5,,,,,
,140,-11,-815,,-1057,-918,-790,,-920,-931,,,-746,-658,-756,,,,,,,,
,441,10,-3287,,-2376,-3310,-3254,,-3755,-3897,,,-3664,-2641,-3732,,,3,,,,,
,-480,3,-980,,-543,-926,-1074,,-1286,-1233,,,-1297,-615,-1388,,,3,,,,,
,-148,-1,-38,,18,-74,-62,,-196,-99,,,-43,44,-48,,,-15,,,,,
,1831,-1,770,,716,836,673,,785,947,,,916,824,924,,,10,,,,,
,-1607,-16,3534,,2614,3487,3374,,3980,3968,,,3607,2693,3886,,,1,,,,,
,-154,5,1114,,545,829,1090,,1328,1080,,,1271,648,1637,,,8,,,,,
,392,1,105,,49,-19,70,,339,21,,,282,8,104,,,-5,,,,,
,-374,-3,-642,,-571,-770,-562,,-972,-927,,,-913,-762,-882,,,-6,,,,,
,444,-18,-3575,,-2554,-3366,-3232,,-3976,-3841,,,-3812,-2721,-3912,,,-5,,,,,
,-421,3,-1096,,-591,-820,-1131,,-993,-1059,,,-1366,-722,-1602,,,5,,,,,
,-115,17,-79,,-89,-56,-139,,-279,-161,,,7,-1,-224,,,-2,,,,,
,123,-19,934,,646,859,844,,725,851,,,845,736,840,,,-2,,,,,
,16,-1,3550,,2606,3446,3403,,3904,3901,,,3679,2707,3840,,,6,,,,,
,-24,-1,1021,,660,952,1153,,1253,1202,,,1264,715,1565,,,9,,,,,
,15,-11,135,,59,115,155,,184,157,,,65,11,267,,,,,,,,
,37,,-884,,-680,-859,-772,,-865,-910,,,-939,-785,-750,,,3,,,,,
,62,13,-3436,,-2767,-3501,-3295,,-3941,-3984,,,-3640,-2760,-3988,,,-17,,,,,
,-36,-12,-955,,-457,-908,-1071,,-1351,-1202,,,-1244,-609,-1596,,,-4,,,,,
,-164,1,-67,,122,25,-73,,-62,-4,,,-129,27,-158,,,2,,,,,
,370,,841,,653,896,791,,962,1004,,,797,667,810,,,6,,,,,
,-407,,3635,,2612,3435,3277,,4068,3946,,,3748,2663,3665,,,-9,,,,,
,206,11,1065,,544,760,967,,1330,1115,,,1273,592,1512,,,12,,,,,
,-132,-11,43,,-30,-35,20,,15,19,,,156,49,-20,,,-3,,,,,
,53,-1,-773,,-622,-788,-811,,-955,-879,,,-872,-659,-833,,,-6,,,,,
,-61,1,-3572,,-2648,-3395,-3345,,-3919,-3884,,,-3670,-2714,-3887,,,6,,,,,
,529,-13,-1006,,-561,-870,-1051,,-1082,-1135,,,-1407,-709,-1448,,,-9,,,,,
,-339,16,-51,,7,-65,-118,,-65,-85,,,-48,19,-173,,,12,,,,,
,-190,-2,822,,761,802,716,,476,875,,,868,878,817,,,-1,,,,,
,-143,-21,3506,,2469,3391,3379,,3981,3952,,,3645,2775,3957,,,-1,,,,,
,140,1,1054,,540,902,1125,,1332,1160,,,1262,629,1641,,,-10,,,,,
,-170,-12,83,,135,57,61,,133,62,,,115,13,228,,,17,,,,,
,300,10,-616,,-712,-820,-658,,-876,-994,,,-684,-704,-799,,,-3,,,,,
,93,-12,-3545,,-2475,-3450,-3309,,-3965,-3963,,,-3561,-2625,-3883,,,-12,,,,,
,-278,4,-1089,,-567,-865,-1148,,-1311,-1107,,,-1419,-697,-1530,,,11,,,,,
,917,-2,195,,169,156,-21,,109,81,,,-210,-131,-198,,,-8,,,,,
,-678,11,744,,627,850,646,,943,896,,,912,645,675,,,4,,,,,
,-224,-12,3405,,2530,3385,3343,,3969,3865,,,3519,2661,3838,,,8,,,,,
,69,-1,1286,,537,870,1282,,1159,1130,,,1199,739,1502,,,-1,,,,,
,150,18,-84,,-42,-16,104,,-26,55,,,93,108,263,,,-3,,,,,
,6,-18,-965,,-764,-894,-807,,-891,-935,,,-838,-702,-739,,,-4,,,,,
,-226,13,-3503,,-2589,-3407,-3290,,-3892,-3883,,,-3579,-2701,-3927,,,5,,,,,
,56,-11,-871,,-547,-783,-912,,-1255,-1087,,,-1175,-646,-1540,,,-11,,,,,
,413,1,63,,150,26,-40,,-22,-30,,,-149,54,-314,,,2,,,,,
,-400,-1,752,,815,808,549,,1048,928,,,753,742,697,,,4,,,,,
,-12,,3429,,2346,3336,3217,,3694,3861,,,3573,2648,3860,,,8,,,,,
,279,-2,1324,,440,911,1190,,968,1114,,,1161,653,1631,,,-9,,,,,
,-365,,203,,142,35,69,,398,17,,,141,-30,165,,,-5,,,,,
,206,3,-804,,-581,-811,-692,,-842,-912,,,-860,-730,-868,,,2,,,,,
,-28,-1,-3556,,-2517,-3388,-3278,,-3978,-3891,,,-3640,-2691,-3937,,,-1,,,,,
,-47,-1,-1119,,-674,-904,-1133,,-1263,-1129,,,-1248,-632,-1441,,,-1,,,,,
,-126,-19,-72,,-99,-62,-128,,-48,-11,,,-212,-45,-205,,,7,,,,,
,394,-12,756,,708,800,666,,964,883,,,774,685,670,,,7,,,,,
,-354,15,3355,,2323,3244,3217,,3534,3773,,,3541,2760,3898,,,1,,,,,
,18,-13,967,,625,943,1117,,1237,1191,,,1177,664,1530,,,1,,,,,
,1577,,60,,173,101,31,,329,114,,,193,-39,95,,,-3,,,,,
,-1522,10,-988,,-994,-1014,-890,,-904,-981,,,-601,-673,-758,,,6,,,,,
,-103,-10,-3429,,-2619,-3488,-3313,,-3998,-3918,,,-3747,-2700,-3798,,,-4,,,,,
,267,-1,-1034,,-555,-975,-1127,,-1387,-1165,,,-1400,-522,-1344,,,-4,,,,,
,-268,1,-60,,133,-62,-221,,115,-53,,,72,64,-211,,,-9,,,,,
,249,11,718,,667,872,739,,963,914,,,1035,752,958,,,-3,,,,,
,572,,3857,,2448,3533,3545,,3515,3828,,,3715,2714,3882,,,,,,,,
,-764,-11,1237,,765,955,1214,,1508,1116,,,1223,567,1454,,,4,,,,,
,-128,-13,110,,170,97,242,,42,101,,,-15,14,192,,,1,,,,,
,-17,-10,-768,,-625,-770,-671,,-909,-895,,,-840,-689,-715,,,3,,,,,
,202,3,-3521,,-2595,-3333,-3239,,-3798,-3883,,,-3627,-2745,-3873,,,4,,,,,
,42,20,-1008,,-500,-854,-1131,,-1136,-1090,,,-1320,-724,-1516,,,,,,,,
,-99,-20,-243,,-185,-192,-181,,-132,-85,,,-123,2,-136,,,-3,,,,,
,-42,19,741,,574,777,730,,695,890,,,801,776,740,,,-4,,,,,
,1717,-30,3534,,2618,3484,3320,,3955,3960,,,3691,2692,3816,,,,,,,,
,-1618,14,1088,,611,936,1168,,1359,1180,,,1368,602,1461,,,7,,,,,
,48,-3,133,,-4,56,99,,177,21,,,253,-7,118,,,1,,,,,
,-299,-10,-960,,-716,-881,-786,,-830,-963,,,-881,-685,-823,,,-6,,,,,
,332,10,-3683,,-2421,-3410,-3281,,-3954,-3865,,,-3630,-2655,-4024,,,-3,,,,,
,-203,1,-832,,-340,-728,-992,,-1574,-1031,,,-1397,-620,-1366,,,1,,,,,
,-7,-1,550,,51,165,55,,172,18,,,-247,-128,-207,,,8,,,,,
,68,,1015,,655,858,699,,991,885,,,846,685,722,,,3,,,,,
,252,-11,2993,,2411,3219,3118,,3835,3807,,,3540,2662,3881,,,-7,,,,,
,-141,13,1122,,718,888,1098,,1289,1155,,,1333,683,1432,,,-4,,,,,
,-174,-2,171,,-9,33,189,,188,77,,,173,38,212,,,-5,,,,,
,71,-5,-796,,-796,-946,-765,,-938,-986,,,-876,-727,-712,,,-3,,,,,
,1608,-6,-3507,,-2624,-3502,-3420,,-3850,-3968,,,-3501,-2616,-3922,,,10,,,,,
,-1491,17,-1095,,-652,-966,-1194,,-1363,-1199,,,-1148,-581,-1580,,,-6,,,,,
,-76,-17,-82,,1,-51,-185,,-290,-51,,,-97,78,-179,,,-8,,,,,
,49,-22,739,,717,899,730,,868,975,,,768,685,797,,,2,,,,,
,37,16,3600,,2571,3483,3424,,4110,3948,,,3523,2641,3950,,,15,,,,,
,-317,-5,1281,,731,1003,1184,,1240,1152,,,1247,583,1523,,,-2,,,,,
,38,-10,75,,189,45,79,,44,13,,,178,52,188,,,-5,,,,,
,206,,-897,,-920,-984,-820,,-1007,-950,,,-848,-687,-728,,,-6,,,,,
,-136,9,-3672,,-2766,-3525,-3337,,-3837,-3885,,,-3655,-2756,-3891,,,,,,,,
,-60,1,-1155,,-609,-961,-1069,,-1058,-1143,,,-1190,-622,-1478,,,7,,,,,
,92,11,-122,,-199,-168,-166,,-128,-128,,,9,52,-96,,,-1,,,,,
,218,-12,798,,717,792,625,,864,843,,,880,805,910,,,5,,,,,
,-28,11,3476,,2546,3478,3417,,3689,3946,,,3480,2723,3961,,,7,,,,,
,-267,-10,1159,,632,1080,1297,,1235,1207,,,1167,624,1609,,,-2,,,,,
,7442,-1,157,,163,143,238,,193,63,,,191,3,234,,,-4,,,,,
,-3734,1,-688,,-562,-770,-614,,-714,-908,,,-795,-715,-725,,,11,,,,,
,-3468,,-3421,,-2502,-3485,-3339,,-3947,-3980,,,-3590,-2632,-3965,,,3,,,,,
,2299,-18,-1245,,-638,-985,-1195,,-1446,-1178,,,-1402,-586,-1530,,,-18,,,,,
,-701,-10,-129,,-8,,-182,,27,11,,,-106,-84,-324,,,-4,,,,,
,-1991,9,699,,593,843,689,,1132,989,,,799,644,787,,,7,,,,,
,169,18,3418,,2563,3426,3322,,4024,3897,,,3581,2588,3931,,,2,,,,,
,89,1,1531,,917,1174,1404,,1009,1186,,,1188,560,1290,,,-5,,,,,
,364,-1,306,,88,222,285,,68,137,,,142,67,-33,,,,,,,,
,830,-33,-771,,-519,-665,-633,,-740,-800,,,-788,-677,-762,,,-3,,,,,
,-1352,22,-3442,,-2511,-3386,-3330,,-3868,-3900,,,-3656,-2692,-3889,,,-2,,,,,
,1574,-6,-982,,-638,-975,-1158,,-1360,-1270,,,-1479,-702,-1475,,,-4,,,,,
,-263,,71,,17,-80,-182,,-145,-110,,,-37,14,-235,,,1,,,,,
,-485,-1,632,,535,671,577,,705,869,,,1012,850,880,,,17,,,,,
,-768,1,3391,,2441,3377,3290,,3812,3935,,,3573,2713,4104,,,-6,,,,,
,6921,-1,1098,,590,888,1122,,1396,1149,,,1262,555,1501,,,-2,,,,,
,-3832,-26,219,,68,20,111,,262,27,,,219,-85,-1,,,12,,,,,
,-3176,16,-1054,,-923,-1095,-927,,-1015,-1056,,,-764,-648,-727,,,-13,,,,,
,1742,20,-3610,,-2499,-3560,-3542,,-3827,-3920,,,-3510,-2597,-3940,,,3,,,,,
,10742,-10,-1080,,-513,-881,-1108,,-1016,-1074,,,-1219,-669,-1689,,,4,,,,,
,-3829,,-173,,-139,-105,-130,,72,-67,,,-140,39,116,,,-9,,,,,
,-3843,-39,886,,804,942,912,,551,899,,,737,722,968,,,-8,,,,,
,-3905,-7,3401,,2439,3352,3410,,3824,3818,,,3608,2733,3940,,,3,,,,,
,-966,37,1260,,647,1041,1330,,1321,1206,,,1209,634,1357,,,15,,,,,
,-15,-38,321,,156,159,170,,178,90,,,208,23,183,,,-11,,,,,
,-28,2,-798,,-833,-899,-785,,-982,-960,,,-738,-675,-607,,,4,,,,,
,1138,,-3423,,-2550,-3399,-3285,,-3858,-3912,,,-3647,-2703,-3865,,,-3,,,,,
,-995,19,-1032,,-536,-828,-942,,-1393,-1124,,,-1338,-584,-1510,,,9,,,,,
,-128,-20,-10,,177,181,35,,20,69,,,-223,-68,-345,,,-7,,,,,
,99,-12,1098,,979,1081,811,,1151,1041,,,864,654,690,,,3,,,,,
,1023,4,3571,,2589,3424,3252,,3991,3891,,,3605,2624,3844,,,-4,,,,,
,-1064,8,898,,348,751,1027,,1223,1057,,,1210,577,1525,,,-3,,,,,
,8156,-14,183,,-32,-29,141,,3,-1,,,209,55,166,,,3,,,,,
,-3813,18,-741,,-696,-910,-741,,-975,-924,,,-738,-624,-726,,,-9,,,,,
,-3529,3,-3719,,-2664,-3545,-3444,,-3721,-3920,,,-3524,-2689,-3838,,,12,,,,,
,-598,-6,-1227,,-663,-896,-1021,,-1227,-1188,,,-1335,-659,-1386,,,-1,,,,,
,-215,-13,-32,,-20,1,-42,,-518,-115,,,-233,25,-121,,,1,,,,,
,1980,13,806,,802,815,579,,951,938,,,808,779,719,,,6,,,,,
,-1190,24,3498,,2551,3413,3265,,3896,3966,,,3584,2636,3745,,,,,,,,
,371,-54,929,,356,801,1012,,1138,1142,,,1183,591,1479,,,-7,,,,,
,-863,,137,,-160,-81,88,,62,27,,,234,53,283,,,-2,,,,,
,-166,19,-733,,-563,-885,-785,,-681,-972,,,-668,-718,-813,,,-4,,,,,
,-278,-20,-3382,,-2299,-3361,-3217,,-3766,-3893,,,-3628,-2663,-4067,,,-5,,,,,
,68,-3,-1094,,-589,-820,-1017,,-1285,-1100,,,-1365,-634,-1503,,,2,,,,,
,586,11,-184,,-153,-25,-86,,-145,-26,,,-119,,-50,,,8,,,,,
,-464,-8,725,,677,863,700,,1000,930,,,834,717,917,,,-4,,,,,
,-66,19,3525,,2491,3407,3380,,3938,3872,,,3602,2653,3908,,,,,,,,
,7785,-18,1060,,580,813,1099,,1260,1116,,,1301,714,1605,,,7,,,,,
,-3863,-14,-347,,-96,-120,-188,,50,93,,,90,2,144,,,-8,,,,,
,-3822,13,-1154,,-729,-852,-742,,-715,-837,,,-818,-839,-1008,,,5,,,,,
,-190,-1,-2403,,-2063,-2950,-2617,,-4018,-3816,,,-3589,-2673,-3671,,,5,,,,,
,-40,2,-393,,-394,-735,-783,,-1175,-1187,,,-1244,-584,-1307,,,2,,,,,
,94,-14,-74,,-16,-94,-48,,-165,-129,,,-163,40,-153,,,-7,,,,,
,117,13,485,,358,745,582,,698,885,,,807,744,730,,,1,,,,,
,95,-1,3547,,2512,3456,3330,,3907,3911,,,3535,2626,3852,,,9,,,,,
,-130,,1516,,900,1009,1172,,1550,1154,,,1308,561,1445,,,5,,,,,
,-10,-10,-299,,-279,-210,-279,,-24,-1,,,257,80,161,,,-10,,,,,
,2463,12,-1057,,-883,-1038,-1020,,-1101,-963,,,-901,-587,-880,,,6,,,,,
,-2593,-15,-3757,,-2603,-3547,-3528,,-4006,-3894,,,-3739,-2651,-3991,,,-1,,,,,
,399,22,-1058,,-593,-866,-1101,,-1172,-1080,,,-1318,-668,-1499,,,-20,,,,,
,-9,-24,-141,,-152,-46,-135,,-7,-66,,,-31,-17,-122,,,3,,,,,
,-183,-15,887,,692,883,764,,863,881,,,988,727,741,,,14,,,,,
,109,21,3652,,2746,3476,3407,,3976,3904,,,3484,2703,3961,,,-10,,,,,
,8413,-21,1213,,590,1009,1303,,878,1152,,,1163,668,1512,,,-1,,,,,
,-3741,,193,,90,119,227,,200,154,,,110,1,281,,,3,,,,,
,-3407,2,-833,,-485,-831,-790,,-498,-848,,,-795,-816,-861,,,1,,,,,
,-1354,-2,-3747,,-2842,-3591,-3543,,-3949,-3973,,,-3477,-2692,-3931,,,-5,,,,,
,-149,-13,-1160,,-588,-944,-1152,,-1422,-1145,,,-1414,-627,-1488,,,12,,,,,
,1363,15,-15,,53,52,-64,,-62,51,,,-285,-83,-184,,,-3,,,,,
,-1333,-3,813,,649,887,768,,1000,976,,,911,667,840,,,12,,,,,
,138,-9,3547,,2701,3525,3426,,4112,3911,,,3727,2592,3753,,,-6,,,,,
,-164,10,1317,,800,994,1248,,1430,1068,,,1351,575,1368,,,-10,,,,,
,-9,,311,,45,86,241,,-177,44,,,75,132,286,,,1,,,,,
,56,-2,-873,,-700,-917,-864,,-964,-932,,,-725,-595,-710,,,11,,,,,
,-116,2,-3607,,-2690,-3542,-3456,,-3876,-3944,,,-3471,-2642,-3809,,,-5,,,,,
,28,,-1242,,-664,-983,-1132,,-1007,-1183,,,-1222,-628,-1447,,,-1,,,,,
,124,-2,124,,146,74,43,,-83,-65,,,-216,-18,-155,,,-1,,,,,
,-135,-22,885,,678,926,887,,296,889,,,624,789,822,,,-2,,,,,
,-70,14,3418,,2537,3395,3296,,3996,3921,,,3551,2661,3875,,,4,,,,,
,2770,1,917,,303,763,1057,,1312,1118,,,1186,598,1633,,,-9,,,,,
,-1972,5,92,,-142,-18,111,,176,66,,,133,23,172,,,-6,,,,,
,-605,-5,-637,,-523,-779,-729,,-782,-918,,,-697,-623,-928,,,8,,,,,
,-142,-19,-3562,,-2473,-3453,-3342,,-4103,-3961,,,-3681,-2640,-3915,,,5,,,,,
,1328,14,-1248,,-693,-923,-1060,,-1394,-1132,,,-1314,-617,-1490,,,-3,,,,,
,-1291,-18,-16,,-49,3,-58,,-79,-9,,,-178,-50,-52,,,,,,,,
,392,13,882,,742,891,751,,970,945,,,760,653,822,,,10,,,,,
,229,-6,3469,,2676,3418,3192,,4058,3927,,,3881,2748,3684,,,-7,,,,,
,-667,-2,1055,,607,875,1055,,1211,1170,,,1344,671,1411,,,-2,,,,,
,3881,-2,30,,-123,25,118,,-23,73,,,42,-12,234,,,7,,,,,
,-3397,-3,-961,,-766,-913,-833,,-810,-960,,,-869,-738,-623,,,-4,,,,,
,-460,7,-3538,,-2592,-3532,-3465,,-3673,-3959,,,-3469,-2745,-4140,,,-6,,,,,
,556,-14,-994,,-500,-890,-1077,,-1588,-1133,,,-1223,-579,-1421,,,-2,,,,,
,885,8,67,,-135,-28,-35,,-32,-25,,,-191,19,-195,,,4,,,,,
,485,,941,,710,970,887,,917,982,,,813,696,703,,,10,,,,,
,-1949,-8,3556,,2636,3478,3409,,4022,3910,,,3556,2615,3857,,,-10,,,,,
,32,8,1023,,564,815,1063,,1326,1104,,,1223,597,1537,,,5,,,,,
,25,-16,-119,,-137,-130,3,,-81,-19,,,46,-62,55,,,1,,,,,
,-103,-2,-923,,-774,-887,-816,,-1084,-940,,,-1061,-693,-899,,,4,,,,,
,157,11,-3551,,-2540,-3401,-3439,,-3837,-3886,,,-3563,-2646,-3830,,,1,,,,,
,5682,-11,-967,,-582,-902,-1082,,-1154,-1142,,,-1140,-562,-1332,,,-5,,,,,
,-3728,,-64,,-20,-14,-26,,-43,-81,,,-158,-2,-11,,,-2,,,,,
,-2085,,971,,900,996,965,,969,950,,,852,717,743,,,6,,,,,
,2239,-24,3574,,2636,3460,3378,,3823,3933,,,3665,2720,3762,,,-14,,,,,
,-2249,16,1106,,558,912,1077,,1557,1190,,,1308,601,1453,,,,,,,,
,56,-18,-62,,-85,-47,70,,-166,27,,,129,82,268,,,5,,,,,
,1742,26,-968,,-738,-918,-783,,-945,-958,,,-883,-757,-833,,,-9,,,,,
,-1656,16,-3474,,-2534,-3364,-3241,,-3959,-3938,,,-3859,-2762,-3958,,,1,,,,,
,-28,-23,-1043,,-531,-820,-1003,,-1371,-1129,,,-1400,-634,-1536,,,13,,,,,
,-161,8,-202,,-282,-69,-175,,-103,-45,,,-92,20,-133,,,9,,,,,
,13,-1,632,,615,773,607,,924,857,,,839,673,773,,,-12,,,,,
,-71,-37,3655,,2649,3394,3333,,3924,3857,,,3574,2625,3862,,,-8,,,,,
,548,36,1116,,517,812,1150,,1140,1072,,,1246,648,1418,,,-3,,,,,
,480,-41,91,,173,70,96,,105,115,,,175,56,71,,,18,,,,,
,-928,-2,-721,,-603,-768,-779,,-774,-849,,,-845,-729,-779,,,-6,,,,,
,6422,21,-3428,,-2562,-3362,-3330,,-3878,-3895,,,-3707,-2677,-3879,,,4,,,,,
,-3795,-15,-1108,,-639,-996,-1215,,-1125,-1190,,,-1111,-598,-1547,,,2,,,,,
,-2611,-3,43,,107,38,,,-57,-67,,,-11,8,-143,,,-5,,,,,
,74,-1,943,,777,975,877,,852,1034,,,581,733,850,,,-4,,,,,
,555,34,3398,,2466,3411,3294,,4007,3945,,,3591,2625,3906,,,-4,,,,,
,-689,-39,1253,,660,942,1249,,835,1109,,,1267,642,1651,,,-2,,,,,
,5708,4,120,,97,2,133,,238,1,,,275,27,183,,,4,,,,,
,-3836,-1,-915,,-555,-869,-815,,-787,-954,,,-581,-590,-796,,,6,,,,,
,-956,2,-3461,,-2677,-3388,-3275,,-4030,-3825,,,-3736,-2680,-4002,,,-5,,,,,
,2687,-1,-1039,,-643,-878,-1106,,-1200,-1060,,,-1441,-681,-1502,,,-8,,,,,
,-3548,4,-174,,-119,-127,-196,,22,-66,,,24,22,-176,,,17,,,,,
,-18,-3,757,,578,728,642,,1003,882,,,917,711,796,,,-4,,,,,
,-112,7,3438,,2479,3294,3273,,3774,3824,,,3484,2703,3993,,,-4,,,,,
,76,-18,1055,,534,846,1129,,1148,1109,,,1146,642,1465,,,11,,,,,
,5701,,8,,21,105,203,,117,63,,,77,-2,216,,,-6,,,,,
,-3681,-15,-715,,-593,-703,-568,,-774,-896,,,-778,-737,-745,,,-3,,,,,
,751,16,-3275,,-2458,-3353,-3179,,-3836,-3933,,,-3509,-2680,-3895,,,-8,,,,,
,-2350,-9,-1029,,-574,-938,-1099,,-1309,-1174,,,-1197,-530,-1436,,,6,,,,,
,109,-8,-209,,-3,-34,-101,,35,-9,,,-197,52,-201,,,9,,,,,
,668,2,817,,530,837,839,,474,937,,,706,751,988,,,2,,,,,
,-777,14,3409,,2424,3335,3293,,3954,3879,,,3621,2626,3774,,,-7,,,,,
,-74,-17,1108,,548,831,1062,,1360,1081,,,1174,590,1452,,,-2,,,,,
,3676,24,293,,141,49,95,,52,17,,,194,96,123,,,-3,,,,,
,-3849,-7,-774,,-649,-798,-722,,-930,-869,,,-804,-645,-778,,,6,,,,,
,967,-20,-3556,,-2663,-3427,-3375,,-3883,-3882,,,-3678,-2671,-3769,,,4,,,,,
,-246,1,-988,,-438,-880,-1127,,-1066,-1187,,,-1233,-674,-1554,,,-4,,,,,
,-586,-1,-122,,-18,-36,-65,,-16,-74,,,-186,-78,-243,,,-6,,,,,
,302,-14,825,,667,797,675,,747,876,,,820,792,821,,,8,,,,,
,-648,14,3553,,2553,3430,3340,,3782,3936,,,3600,2788,3974,,,-3,,,,,
,4090,2,1172,,597,1019,1196,,1324,1205,,,1303,646,1471,,,1,,,,,
,-3835,-25,67,,94,64,54,,252,58,,,188,4,269,,,5,,,,,
,-239,12,-561,,-538,-743,-653,,-776,-892,,,-775,-704,-724,,,-3,,,,,
,-75,11,-3458,,-2535,-3461,-3287,,-3955,-3945,,,-3557,-2653,-3905,,,-18,,,,,
,183,-3,-1153,,-553,-931,-1069,,-1370,-1138,,,-1425,-698,-1552,,,10,,,,,
,-110,3,-32,,,32,-101,,190,8,,,-162,-70,-233,,,-6,,,,,
,197,-1,982,,835,938,752,,838,893,,,1033,798,851,,,,,,,,
,-279,-1,3511,,2628,3436,3339,,3818,3918,,,3630,2675,3877,,,4,,,,,
,3350,-9,956,,564,806,1074,,1185,1094,,,1254,662,1457,,,5,,,,,
,1012,-3,216,,59,120,206,,119,95,,,13,-45,97,,,,,,,,
,-3820,-13,-712,,-774,-716,-585,,-887,-851,,,-885,-752,-782,,,-8,,,,,
,-526,16,-3475,,-2587,-3357,-3249,,-3852,-3898,,,-3643,-2656,-3812,,,3,,,,,
,100,-22,-1056,,-634,-968,-1148,,-1255,-1198,,,-1242,-647,-1513,,,13,,,,,
,-109,2,-19,,81,-42,-101,,-128,-63,,,-110,23,-145,,,-5,,,,,
,184,18,868,,856,987,791,,952,1029,,,698,651,653,,,-8,,,,,
,-144,-31,3579,,2559,3523,3391,,3914,3968,,,3486,2587,3857,,,-1,,,,,
,230,11,937,,333,797,1108,,1229,1063,,,1311,660,1669,,,-1,,,,,
,3289,-11,66,,-22,-48,145,,71,-26,,,125,62,188,,,,,,,,
,-3530,15,-718,,-590,-944,-775,,-933,-1019,,,-835,-637,-822,,,7,,,,,
,4431,-4,-3569,,-2617,-3433,-3413,,-3755,-3895,,,-3586,-2720,-4001,,,4,,,,,
,-3883,-11,-1070,,-639,-882,-1102,,-1380,-1105,,,-1176,-608,-1470,,,-17,,,,,
,1407,11,176,,78,72,67,,-214,-56,,,-125,-37,-201,,,3,,,,,
,-1978,-6,802,,689,828,715,,1001,876,,,820,727,803,,,9,,,,,
,113,7,3438,,2503,3375,3349,,3775,3905,,,3621,2762,3916,,,-11,,,,,
,480,-17,1082,,583,878,1138,,1243,1152,,,1226,646,1544,,,-4,,,,,
,-668,12,126,,113,84,133,,239,90,,,110,-42,149,,,13,,,,,
,1946,7,-810,,-890,-931,-758,,-884,-950,,,-805,-707,-710,,,10,,,,,
,-1724,16,-3483,,-2441,-3488,-3419,,-3756,-3948,,,-3465,-2672,-3977,,,-9,,,,,
,176,-23,-1190,,-530,-1040,-1239,,-1331,-1203,,,-1225,-563,-1516,,,,,,,,
,-352,16,-69,,-49,-28,-123,,-145,-67,,,-140,-13,-185,,,-1,,,,,
,143,-15,926,,719,1047,901,,959,1063,,,752,589,623,,,-4,,,,,
,-17,-15,3584,,2465,3441,3392,,3866,3931,,,3504,2654,4049,,,-7,,,,,
,-2,12,1186,,595,864,1118,,1311,1082,,,1200,598,1663,,,17,,,,,
,-50,,-20,,39,-13,94,,-2,11,,,149,67,-3,,,3,,,,,
,6736,-10,-844,,-658,-810,-765,,-854,-897,,,-799,-684,-888,,,-10,,,,,
,-3864,20,-3528,,-2598,-3411,-3399,,-3704,-3870,,,-3522,-2710,-3974,,,1,,,,,
,-2438,-5,-1192,,-736,-1005,-1171,,-1290,-1158,,,-1239,-601,-1375,,,-3,,,,,
,-441,3,146,,162,90,91,,-349,-31,,,-242,51,-86,,,2,,,,,
,34,-2,737,,759,887,755,,841,930,,,713,717,682,,,-9,,,,,
,49,1,2980,,2308,3310,3125,,3758,3934,,,3564,2723,3929,,,11,,,,,
,34,-11,1037,,551,876,1142,,1341,1137,,,1178,557,1517,,,-3,,,,,
,1635,-1,1147,,358,270,438,,324,25,,,160,-78,211,,,-1,,,,,
,883,1,-554,,-659,-775,-628,,-876,-962,,,-789,-714,-867,,,1,,,,,
,-1945,-18,-3635,,-2539,-3451,-3325,,-4062,-3895,,,-3672,-2576,-3828,,,7,,,,,
,384,-1,-1111,,-679,-895,-1130,,-1179,-1104,,,-1177,-557,-1483,,,-1,,,,,
,-58,-2,71,,-149,15,7,,-43,-38,,,-92,-10,-81,,,-6,,,,,
,-242,3,1085,,772,911,835,,895,840,,,789,668,893,,,1,,,,,
,-230,-3,3273,,2480,3358,3271,,3731,3842,,,3566,2727,4016,,,7,,,,,
,3193,4,965,,683,918,1110,,1167,1157,,,1119,676,1472,,,-2,,,,,
,-2867,-3,137,,52,109,113,,74,89,,,137,60,160,,,3,,,,,
,-736,3,-656,,-586,-738,-670,,-814,-887,,,-786,-736,-830,,,-4,,,,,
,2872,11,-3564,,-2587,-3460,-3415,,-3845,-3973,,,-3557,-2762,-4037,,,-3,,,,,
,-3044,-14,-1214,,-752,-1076,-1237,,-1345,-1224,,,-1243,-616,-1463,,,-10,,,,,
,41,1,18,,5,-24,-51,,-175,-8,,,-206,-57,-200,,,3,,,,,
,1532,1,780,,671,821,692,,1061,979,,,976,687,765,,,8,,,,,
,-1608,-1,3254,,2505,3292,3243,,4264,3904,,,3902,2689,3873,,,4,,,,,
,500,-1,1259,,589,889,1219,,1126,1106,,,1215,572,1450,,,1,,,,,
,-369,2,137,,-26,-54,106,,-84,-28,,,54,55,285,,,-10,,,,,
,4866,-2,-884,,-608,-874,-797,,-845,-958,,,-662,-591,-842,,,-5,,,,,
,-3876,-30,-3476,,-2289,-3242,-3268,,-3689,-3819,,,-3582,-2668,-3893,,,14,,,,,
,-1102,,-949,,-615,-736,-993,,-1171,-1111,,,-1361,-659,-1375,,,4,,,,,
,29,29,55,,-2,41,15,,-140,-86,,,-176,-33,-7,,,-8,,,,,
,358,-29,960,,719,899,833,,773,909,,,804,728,736,,,-1,,,,,
,98,4,3531,,2589,3469,3448,,3695,3996,,,3548,2720,3933,,,2,,,,,
,-444,26,1102,,537,911,1105,,1261,1221,,,1218,572,1503,,,-2,,,,,
,-60,,-149,,-122,-89,-70,,88,33,,,120,7,197,,,5,,,,,
,13,-24,-872,,-808,-980,-867,,-944,-1037,,,-809,-711,-830,,,-14,,,,,
,-21,-18,-3639,,-2660,-3617,-3453,,-3953,-3981,,,-3537,-2666,-3898,,,2,,,,,
,548,16,-1254,,-561,-939,-1075,,-1306,-1101,,,-1421,-614,-1422,,,2,,,,,
,-580,-21,-185,,-36,-14,-93,,-81,-8,,,-148,50,-49,,,-7,,,,,
,714,18,1009,,736,943,804,,1070,955,,,896,682,627,,,-10,,,,,
,-594,3,3662,,2546,3407,3354,,4016,3838,,,3697,2655,3787,,,,,,,,
,-147,-18,1119,,617,843,1098,,1244,1050,,,1259,627,1510,,,23,,,,,
,722,,-55,,-42,-21,12,,-88,42,,,105,57,281,,,-8,,,,,
,-648,20,-995,,-907,-919,-869,,-865,-901,,,-838,-717,-644,,,-7,,,,,
,302,-2,-3549,,-2687,-3475,-3398,,-3984,-3926,,,-3518,-2634,-3899,,,3,,,,,
,-272,-34,-993,,-526,-882,-1074,,-1535,-1168,,,-1376,-630,-1522,,,4,,,,,
,5,28,-161,,-30,-135,-179,,49,-83,,,-118,15,-176,,,4,,,,,
,-149,-11,691,,770,840,657,,923,964,,,853,770,766,,,2,,,,,
,14,-21,3505,,2599,3439,3304,,3957,3946,,,3642,2662,3912,,,-4,,,,,
,93,,967,,364,799,1083,,1285,1103,,,1310,614,1504,,,1,,,,,
,-158,4,60,,-156,-18,189,,149,52,,,116,-46,68,,,4,,,,,
,199,18,-711,,-623,-773,-621,,-918,-889,,,-837,-719,-902,,,1,,,,,
,-94,-22,-3170,,-2225,-3183,-3130,,-3961,-3826,,,-3716,-2659,-3853,,,1,,,,,
,163,20,-939,,-422,-773,-1017,,-1239,-1075,,,-1291,-648,-1362,,,5,,,,,
,179,-29,-62,,-83,-92,-187,,-136,-126,,,-98,7,-19,,,1,,,,,
,-342,12,833,,712,802,677,,958,851,,,867,688,608,,,-9,,,,,
,92,-12,3285,,2514,3292,3226,,3908,3900,,,3642,2705,3819,,,,,,,,
,-117,9,965,,500,764,1028,,1177,1161,,,1165,631,1596,,,2,,,,,
,71,4,-1,,-131,-47,48,,108,67,,,159,38,208,,,10,,,,,
,-120,5,-986,,-842,-988,-863,,-890,-1028,,,-777,-711,-754,,,-2,,,,,
,95,-9,-3538,,-2505,-3450,-3367,,-3722,-3923,,,-3516,-2653,-3927,,,-19,,,,,
,58,-9,-963,,-495,-828,-1010,,-1353,-1127,,,-1322,-642,-1551,,,10,,,,,
,36,12,3,,-26,117,89,,-211,11,,,-102,-32,-216,,,-4,,,,,
,531,-12,814,,628,836,679,,946,931,,,920,734,821,,,-5,,,,,
,1507,,3411,,2435,3271,3265,,3890,3845,,,3625,2741,4017,,,9,,,,,
,-2032,-17,1108,,596,829,1136,,1351,1091,,,1260,632,1634,,,3,,,,,
,52,17,57,,-13,17,139,,218,47,,,124,-5,195,,,2,,,,,
,-18,-21,-545,,-472,-617,-432,,-1304,-806,,,-962,-738,-804,,,-15,,,,,
,1668,21,-3410,,-2428,-3280,-3190,,-3832,-3805,,,-3614,-2681,-3911,,,2,,,,,
,-1484,5,-937,,-467,-781,-1020,,-988,-1096,,,-1173,-688,-1612,,,16,,,,,
,-290,-32,64,,52,11,-150,,40,-99,,,-48,-31,-252,,,-4,,,,,
,133,9,865,,819,840,607,,939,884,,,876,750,695,,,-5,,,,,
,49,,3488,,2555,3407,3305,,3855,3935,,,3581,2687,3924,,,-8,,,,,
,-70,,1024,,536,907,1162,,1258,1173,,,1066,549,1519,,,7,,,,,
,-74,-1,-25,,-347,-119,40,,-5,-8,,,254,52,142,,,13,,,,,
,-128,-2,-737,,-606,-851,-658,,-770,-943,,,-839,-819,-906,,,-4,,,,,
,220,2,-3492,,-2469,-3426,-3272,,-4066,-3935,,,-3688,-2619,-3871,,,-2,,,,,
,132,2,-1197,,-580,-913,-1149,,-1366,-1115,,,-1262,-568,-1412,,,3,,,,,
,-211,-13,-134,,-1,-24,-202,,23,-15,,,-8,1,-110,,,-11,,,,,
,-48,-1,900,,681,883,688,,1017,901,,,876,687,750,,,-9,,,,,
,488,14,3698,,2674,3535,3475,,3940,3947,,,3428,2650,3916,,,3,,,,,
,-190,-15,987,,531,816,1138,,1150,1137,,,1179,680,1472,,,-8,,,,,
,-263,10,-42,,-62,1,155,,-58,57,,,139,30,214,,,12,,,,,
,151,-8,-889,,-724,-871,-726,,-870,-952,,,-756,-709,-620,,,3,,,,,
,66,-19,-3538,,-2579,-3434,-3385,,-3783,-3974,,,-3596,-2743,-3907,,,-12,,,,,
,879,27,-920,,-602,-858,-1031,,-1167,-1205,,,-1192,-668,-1750,,,-1,,,,,
,-968,-4,-2,,-26,-89,-149,,-27,-115,,,-49,72,-263,,,10,,,,,
,-54,-9,945,,818,946,786,,469,978,,,708,716,811,,,10,,,,,
,1823,-13,3376,,2434,3440,3390,,3766,3966,,,3434,2562,3937,,,-5,,,,,
,-1320,17,981,,482,786,1082,,1407,1166,,,1282,626,1569,,,-8,,,,,
,-318,9,131,,-1,-45,32,,145,21,,,251,47,135,,,,,,,,
,-277,-27,-866,,-565,-814,-706,,-960,-887,,,-913,-653,-797,,,7,,,,,
,-31,4,-3499,,-2388,-3371,-3353,,-3806,-3885,,,-3573,-2679,-3783,,,1,,,,,
,47,-18,-894,,-343,-754,-1110,,-1066,-1092,,,-1173,-666,-1379,,,3,,,,,
,2236,2,-147,,-368,-155,-153,,-158,-93,,,-102,-11,13,,,-1,,,,,
,-2314,33,818,,714,825,749,,996,872,,,1030,700,496,,,3,,,,,
,52,-24,3231,,2525,3344,3266,,3729,3843,,,3527,2697,3830,,,-12,,,,,
,84,-10,1370,,725,1025,1296,,1288,1203,,,1176,642,1564,,,1,,,,,
,-110,,622,,91,201,362,,111,129,,,35,-8,289,,,15,,,,,
,-44,13,-762,,-622,-820,-697,,-781,-908,,,-785,-757,-820,,,-16,,,,,
,93,,-3285,,-2511,-3380,-3218,,-3896,-3911,,,-3516,-2718,-3925,,,4,,,,,
,-10,-13,-1106,,-484,-878,-1099,,-1259,-1156,,,-1290,-586,-1517,,,7,,,,,
,45,-18,-278,,-35,-35,-158,,-121,-57,,,-220,-31,-195,,,-14,,,,,
,-78,-1,760,,675,882,688,,964,960,,,960,745,750,,,11,,,,,
,57,3,3415,,2473,3364,3241,,3912,3881,,,3645,2622,3819,,,-3,,,,,
,-82,-2,1114,,537,831,1099,,1252,1074,,,1336,658,1531,,,-1,,,,,
,172,19,95,,68,6,212,,-73,-3,,,144,94,270,,,8,,,,,
,-291,,-643,,-530,-683,-531,,-836,-834,,,-1041,-806,-649,,,-6,,,,,
,58,-16,-3443,,-2587,-3434,-3364,,-3591,-3882,,,-3574,-2736,-4039,,,-1,,,,,
,3,-12,-982,,-652,-951,-1130,,-1218,-1163,,,-1144,-650,-1623,,,3,,,,,
,305,-2,86,,162,76,39,,-389,-52,,,-156,-6,-99,,,4,,,,,
,-268,-2,712,,785,840,688,,997,914,,,930,770,763,,,-2,,,,,
,-21,12,3497,,2559,3471,3309,,3985,3985,,,3656,2724,4076,,,-2,,,,,
,28,,1207,,683,1013,1213,,1454,1238,,,1329,570,1436,,,-3,,,,,
,172,,24,,23,-6,76,,174,20,,,130,-56,39,,,8,,,,,
,575,,-891,,-668,-990,-848,,-895,-1048,,,-803,-714,-780,,,-4,,,,,
,-391,-8,-3485,,-2465,-3468,-3357,,-4053,-3975,,,-3732,-2692,-3855,,,-3,,,,,
,-113,12,-1133,,-986,-943,-1065,,-1558,-1132,,,-1311,-591,-1295,,,-14,,,,,
,-179,-12,54,,53,86,44,,5,33,,,-74,-49,-192,,,2,,,,,
,1746,8,782,,713,846,738,,991,904,,,838,671,749,,,11,,,,,
,-1708,-7,3383,,2462,3358,3315,,3785,3858,,,3520,2660,3951,,,-2,,,,,
,-56,-23,1127,,733,956,1243,,1269,1168,,,1222,656,1523,,,,,,,,
,194,21,112,,67,103,174,,116,58,,,78,-34,205,,,,,,,,
,2024,-1,-746,,-738,-807,-712,,-865,-869,,,-712,-706,-881,,,5,,,,,
,-1946,14,-3516,,-2611,-3515,-3422,,-3904,-3967,,,-3456,-2607,-3847,,,-2,,,,,
,-198,-34,-1013,,-599,-964,-1066,,-1378,-1200,,,-1256,-590,-1378,,,-3,,,,,
,1868,-3,-7,,98,35,-20,,-121,-23,,,-276,-66,-273,,,5,,,,,
,-1745,37,605,,613,887,743,,1035,985,,,754,646,714,,,6,,,,,
,10,-37,3476,,2438,3363,3273,,4009,3883,,,3706,2681,3955,,,4,,,,,
,-239,4,1125,,571,839,1167,,930,1064,,,1276,633,1586,,,-18,,,,,
,29,-1,183,,111,52,129,,264,79,,,52,-16,123,,,3,,,,,
,479,5,-739,,-608,-820,-768,,-895,-889,,,-848,-688,-835,,,2,,,,,
,-551,-17,-3484,,-2505,-3344,-3276,,-3840,-3859,,,-3667,-2668,-3735,,,,,,,,
,89,13,-1041,,-555,-809,-961,,-1192,-1127,,,-1245,-630,-1425,,,7,,,,,
,-29,4,-42,,-88,-35,-4,,-104,-120,,,14,7,-145,,,-3,,,,,
,-29,-18,903,,739,846,751,,935,910,,,862,720,736,,,-1,,,,,
,792,1,3562,,2743,3517,3345,,3881,3994,,,3601,2688,3784,,,-5,,,,,
,-804,13,1173,,616,952,1109,,1362,1253,,,1254,580,1435,,,-1,,,,,
,-50,-14,-30,,-12,-79,23,,122,17,,,142,6,250,,,3,,,,,
,-121,-16,-1119,,-1051,-1102,-837,,-1002,-1058,,,-779,-644,-761,,,5,,,,,
,101,17,-3514,,-2603,-3488,-3353,,-3929,-3969,,,-3526,-2667,-3978,,,3,,,,,
,4066,1,-953,,-445,-796,-1023,,-1404,-1150,,,-1499,-662,-1459,,,-5,,,,,
,-1524,-5,-239,,-139,-45,-197,,-193,-30,,,-324,-84,-137,,,-7,,,,,
,-1955,18,589,,696,794,584,,999,936,,,897,646,743,,,14,,,,,
,-314,-32,3991,,2755,3628,3650,,4004,3945,,,3691,2662,3993,,,7,,,,,
,-144,-12,1505,,734,997,1296,,1276,1121,,,1263,636,1559,,,-10,,,,,
,68,11,-15,,24,-18,29,,-35,30,,,58,-5,121,,,-10,,,,,
,757,-12,-612,,-494,-700,-627,,-630,-822,,,-689,-775,-968,,,5,,,,,
,-999,14,-3434,,-2495,-3402,-3231,,-3669,-3896,,,-3381,-2620,-3839,,,16,,,,,
,1806,-13,-1072,,-682,-943,-1137,,-1267,-1199,,,-1160,-529,-1453,,,-6,,,,,
,-1731,7,-358,,-187,-170,-194,,-258,-118,,,-82,91,-91,,,-11,,,,,
,-26,6,569,,597,751,615,,864,928,,,713,708,771,,,1,,,,,
,105,-13,3397,,2492,3375,3242,,3880,3884,,,3600,2609,3981,,,-12,,,,,
,7,11,1105,,557,861,1133,,997,1098,,,1337,642,1561,,,-3,,,,,
,-90,-11,169,,18,1,53,,249,36,,,92,,25,,,10,,,,,
,56,,-872,,-719,-965,-861,,-974,-988,,,-843,-664,-772,,,9,,,,,
,29,-1,-3367,,-2430,-3369,-3315,,-3915,-3865,,,-3757,-2672,-3949,,,-9,,,,,
,-95,12,-1050,,-563,-876,-1142,,-1145,-1133,,,-1237,-653,-1520,,,,,,,,
,-81,-24,-116,,-46,-87,-170,,74,-87,,,-23,16,-85,,,,,,,,
,104,-9,854,,587,844,766,,820,888,,,886,688,646,,,1,,,,,
,219,,3537,,2581,3438,3359,,3826,3893,,,3690,2790,4055,,,-7,,,,,
,-152,7,1156,,718,970,1164,,1247,1189,,,1290,722,1582,,,-6,,,,,
,497,15,186,,113,165,275,,142,118,,,146,-12,177,,,7,,,,,
,-680,,-768,,-540,-816,-715,,-812,-981,,,-838,-731,-670,,,-4,,,,,
,157,-18,-3367,,-2715,-3467,-3341,,-3912,-3972,,,-3512,-2661,-3841,,,-1,,,,,
,136,-14,-1204,,-648,-967,-1092,,-1373,-1188,,,-1272,-595,-1458,,,9,,,,,
,-35,10,-112,,-31,-46,-112,,-185,-16,,,-309,-12,-59,,,8,,,,,
,539,13,858,,714,921,767,,954,996,,,740,638,588,,,2,,,,,
,2958,-10,3196,,2391,3350,3228,,3984,3862,,,3752,2690,3709,,,-7,,,,,
,-2829,-16,1141,,520,865,1171,,1317,1107,,,1331,574,1424,,,1,,,,,
,2810,-5,178,,53,17,189,,-32,25,,,102,83,251,,,6,,,,,
,-3092,,-830,,-600,-764,-621,,-1006,-861,,,-916,-615,-561,,,-7,,,,,
,-550,9,-3647,,-2599,-3419,-3309,,-3780,-3907,,,-3648,-2690,-3477,,,2,,,,,
,-124,-4,-1100,,-628,-901,-1049,,-1117,-1130,,,-1219,-671,-1545,,,9,,,,,
,1622,13,127,,25,-42,-160,,-404,-57,,,-46,-2,-510,,,,,,,,
,-1035,-9,593,,591,720,612,,889,897,,,719,652,671,,,-3,,,,,
,-470,-19,3467,,2564,3440,3315,,3855,3950,,,3404,2602,3891,,,-5,,,,,
,329,-3,1095,,574,901,1072,,1355,1172,,,1236,587,1585,,,-4,,,,,
,148,22,104,,-8,-10,103,,180,39,,,164,-43,163,,,2,,,,,
,-638,-22,-805,,-689,-908,-767,,-765,-959,,,-646,-787,-940,,,3,,,,,
,544,5,-3310,,-2473,-3316,-3133,,-4030,-3877,,,-3707,-2639,-3858,,,7,,,,,
,-80,-2,-982,,-411,-683,-955,,-1288,-1025,,,-1430,-587,-1412,,,-9,,,,,
,-477,,174,,189,149,14,,123,78,,,9,35,-185,,,4,,,,,
,144,-11,810,,680,802,703,,911,914,,,897,733,868,,,-19,,,,,
,-3,15,3430,,2411,3416,3383,,3886,3922,,,3645,2605,3782,,,7,,,,,
,278,-4,1043,,541,818,1095,,1165,1128,,,1153,628,1468,,,7,,,,,
,-46,-11,-100,,-9,-77,-97,,-64,,,,-54,22,80,,,5,,,,,
,32,-1,-900,,-980,-957,-867,,-1000,-983,,,-918,-734,-820,,,-3,,,,,
,915,1,-3433,,-2561,-3426,-3349,,-3862,-3989,,,-3598,-2664,-3776,,,-7,,,,,
,-1149,,-1173,,-636,-1008,-1179,,-1224,-1246,,,-1161,-573,-1475,,,-4,,,,,
,-8,8,-267,,-33,-175,-196,,-162,-122,,,-77,44,-112,,,7,,,,,
,7,-9,889,,838,929,729,,919,928,,,840,722,782,,,-3,,,,,
,-133,-1,3702,,2599,3536,3427,,3999,3982,,,3662,2646,3856,,,5,,,,,
,368,10,1087,,546,968,1257,,1420,1181,,,1263,580,1600,,,5,,,,,
,-307,-27,136,,74,96,212,,178,19,,,204,16,136,,,5,,,,,
,-26,16,-804,,-646,-829,-630,,-980,-913,,,-748,-657,-761,,,-3,,,,,
,1596,-41,-3380,,-2401,-3255,-3180,,-3894,-3814,,,-3716,-2693,-3796,,,-11,,,,,
,-1458,52,-852,,-458,-744,-987,,-1151,-1073,,,-1279,-632,-1437,,,-5,,,,,
,-177,-25,48,,36,,-85,,16,-80,,,-97,-39,-151,,,6,,,,,
,175,,694,,672,727,562,,903,849,,,1035,741,778,,,7,,,,,
,19,,3545,,2624,3422,3320,,3797,3930,,,3545,2696,3745,,,-6,,,,,
,81,2,1107,,556,990,1195,,1238,1242,,,988,542,1424,,,10,,,,,
,-197,-39,-88,,-47,-6,35,,186,67,,,116,-35,102,,,-10,,,,,
,245,35,-912,,-855,-965,-774,,-901,-973,,,-807,-750,-794,,,11,,,,,
,-251,-1,-3512,,-2712,-3521,-3365,,-4013,-3960,,,-3549,-2670,-3821,,,6,,,,,
,138,6,-1228,,-607,-983,-1117,,-1460,-1218,,,-1250,-512,-1480,,,-12,,,,,
,35,-6,-187,,-51,-56,-170,,-164,-67,,,-120,111,-35,,,2,,,,,
,-221,-32,955,,796,929,698,,1233,968,,,1024,692,529,,,-5,,,,,
,68,-2,3816,,2701,3518,3427,,3769,3950,,,3649,2644,3900,,,-5,,,,,
,94,-1,1306,,688,980,1204,,1293,1175,,,1147,531,1477,,,2,,,,,
,225,,-37,,6,-67,15,,112,15,,,73,89,298,,,8,,,,,
,-374,37,-955,,-759,-930,-833,,-954,-918,,,-1032,-715,-670,,,-8,,,,,
,21,-35,-4113,,-2782,-3593,-3533,,-3856,-3931,,,-3603,-2728,-3999,,,-1,,,,,
,-19,1,-1029,,-660,-962,-1061,,-1194,-1251,,,-1223,-660,-1526,,,6,,,,,
,750,-1,735,,249,107,175,,-111,-150,,,-67,25,-118,,,,,,,,
,-768,-21,1049,,765,926,777,,745,917,,,778,723,796,,,-4,,,,,
,-87,-3,3333,,2601,3491,3258,,3891,3988,,,3607,2668,3867,,,-10,,,,,
,271,23,1197,,507,969,1184,,1328,1192,,,1365,600,1535,,,-5,,,,,
,504,-21,286,,129,104,208,,281,69,,,246,-16,197,,,10,,,,,
,-390,3,-1013,,-740,-990,-891,,-868,-990,,,-777,-714,-910,,,1,,,,,
,-222,,-3772,,-2677,-3578,-3488,,-4088,-3929,,,-3711,-2628,-3922,,,-3,,,,,
,46,-1,-1121,,-562,-835,-1104,,-1164,-1080,,,-1262,-608,-1495,,,14,,,,,
,86,-13,-37,,-50,-35,-129,,-32,-73,,,-49,8,-68,,,-4,,,,,
,-162,12,847,,677,821,721,,873,873,,,932,772,931,,,3,,,,,
,288,,3781,,2740,3562,3534,,3902,3922,,,3688,2637,3724,,,3,,,,,
,-259,1,1174,,633,953,1232,,1089,1195,,,1231,621,1512,,,-4,,,,,
,731,-12,5,,29,145,195,,56,126,,,-10,-37,347,,,-1,,,,,
,-637,12,-642,,-544,-645,-540,,-765,-833,,,-745,-716,-805,,,-3,,,,,
,108,,-3273,,-2379,-3284,-3185,,-3788,-3852,,,-3718,-2744,-3918,,,4,,,,,
,-124,-1,-1130,,-541,-910,-1050,,-1224,-1122,,,-1335,-622,-1469,,,5,,,,,
,150,-10,-107,,-1,-57,-88,,-159,-71,,,-241,-34,-358,,,1,,,,,
,10,,591,,544,762,570,,986,889,,,821,618,590,,,-2,,,,,
,-161,11,3368,,2404,3310,3236,,3941,3856,,,3570,2623,3801,,,-3,,,,,
,-160,-31,1230,,588,889,1151,,1304,1135,,,1229,565,1482,,,-11,,,,,
,18,20,14,,32,-32,75,,-11,15,,,64,-36,163,,,-3,,,,,
,468,-21,-987,,-713,-925,-822,,-1016,-909,,,-718,-700,-849,,,10,,,,,
,209,-1,-3574,,-2637,-3441,-3455,,-3936,-3858,,,-3586,-2663,-3849,,,-7,,,,,
,1394,12,-993,,-537,-893,-1087,,-1224,-1123,,,-1264,-630,-1396,,,5,,,,,
,-1720,9,6,,3,8,-7,,-75,-100,,,-66,24,-12,,,11,,,,,
,-256,-18,785,,642,834,703,,789,836,,,871,774,962,,,-2,,,,,
,217,-2,3492,,2523,3351,3261,,3800,3887,,,3594,2716,3941,,,-7,,,,,
,-182,-11,1112,,587,923,1215,,1320,1161,,,1231,617,1472,,,-2,,,,,
,-77,12,73,,16,16,105,,215,-15,,,220,-14,155,,,4,,,,,
,-18,-14,-762,,-636,-886,-732,,-757,-932,,,-699,-736,-744,,,-3,,,,,
,489,15,-3546,,-2559,-3489,-3309,,-3925,-3927,,,-3584,-2672,-3806,,,7,,,,,
,-241,9,-1117,,-613,-934,-1099,,-1376,-1177,,,-1169,-528,-1572,,,5,,,,,
,-321,-9,47,,-33,14,-113,,-95,-60,,,-155,-47,-293,,,-12,,,,,
,235,-12,775,,703,811,646,,946,914,,,793,687,879,,,4,,,,,
,-23,,3408,,2502,3346,3277,,3837,3876,,,3427,2560,3933,,,-2,,,,,
,3121,11,995,,278,724,1042,,1265,1120,,,1211,559,1515,,,-2,,,,,
,-2390,-9,-45,,55,-8,32,,-251,39,,,109,-11,-147,,,4,,,,,
,-952,-1,-782,,-597,-755,-729,,-958,-876,,,-840,-780,-905,,,2,,,,,
,48,-24,-3461,,-2521,-3375,-3286,,-3618,-3872,,,-3467,-2692,-3828,,,-7,,,,,
,193,23,-850,,-461,-794,-1029,,-1126,-1071,,,-1214,-638,-1413,,,,,,,,
,-141,-22,136,,190,126,100,,34,43,,,-142,-51,-370,,,-5,,,,,
,-128,3,812,,756,866,846,,856,942,,,913,844,881,,,13,,,,,
,432,20,3545,,2603,3492,3399,,3986,3939,,,3567,2684,3910,,,-9,,,,,
,5,-1,1119,,537,909,1148,,1315,1128,,,1170,583,1527,,,6,,,,,
,-257,-2,18,,-98,-22,93,,-11,-6,,,3,25,283,,,9,,,,,
,-70,-29,-867,,-745,-934,-705,,-1123,-1006,,,-873,-683,-751,,,-9,,,,,
,40,,-3615,,-2573,-3537,-3436,,-3990,-3913,,,-3611,-2712,-3963,,,2,,,,,
,462,11,-1125,,-577,-966,-1228,,-1173,-1132,,,-1322,-738,-1464,,,,,,,,
,-287,,56,,-19,-2,-62,,-31,-56,,,-32,-14,-15,,,8,,,,,
,74,-10,714,,467,795,723,,830,895,,,918,789,878,,,-4,,,,,
,739,10,3447,,2645,3444,3298,,3885,3860,,,3677,2752,3792,,,-19,,,,,
,-873,-11,1219,,665,983,1262,,1144,1196,,,1152,661,1487,,,6,,,,,
,-208,10,127,,128,70,121,,231,153,,,100,-38,180,,,5,,,,,
,391,-1,-703,,-688,-810,-654,,-816,-878,,,-785,-712,-636,,,-4,,,,,
,-96,-8,-3573,,-2553,-3470,-3386,,-3823,-3972,,,-3450,-2715,-3906,,,3,,,,,
,-14,-1,-1123,,-692,-979,-1189,,-1075,-1172,,,-1217,-624,-1658,,,,,,,,
,2687,16,-33,,-56,-36,-79,,-455,-69,,,-284,15,-130,,,2,,,,,
,-1196,-8,772,,753,865,689,,907,913,,,959,773,790,,,-2,,,,,
,-1691,15,3650,,2693,3492,3378,,4113,3937,,,3773,2665,3855,,,-8,,,,,
,32,-41,1198,,616,948,1206,,1298,1154,,,1052,556,1644,,,8,,,,,
,-126,19,59,,,-1,150,,10,33,,,77,-73,9,,,-10,,,,,
,215,,-944,,-669,-839,-661,,-983,-899,,,-815,-723,-824,,,3,,,,,
,-147,-21,-3642,,-2574,-3423,-3337,,-3855,-3896,,,-3604,-2676,-3816,,,19,,,,,
,310,18,-1056,,-595,-903,-1115,,-1171,-1174,,,-1175,-644,-1510,,,-5,,,,,
,-142,-18,-223,,-145,-141,-177,,-13,-121,,,54,-7,-262,,,-9,,,,,
,-341,1,853,,781,857,702,,907,930,,,778,705,700,,,-2,,,,,
,319,-1,3854,,2809,3614,3458,,3909,4028,,,3388,2707,4019,,,-4,,,,,
,-210,-10,1221,,576,904,1096,,1267,1108,,,1231,653,1731,,,4,,,,,
,41,,7,,5,-36,51,,163,-11,,,199,18,120,,,4,,,,,
,158,,-747,,-659,-822,-656,,-885,-966,,,-751,-753,-860,,,-2,,,,,
,-248,-1,-3535,,-2550,-3449,-3281,,-4057,-3949,,,-3594,-2642,-3875,,,-6,,,,,
,200,-1,-1162,,-615,-869,-1134,,-1351,-1075,,,-1350,-591,-1596,,,-5,,,,,
,-253,13,7,,46,94,36,,-16,53,,,-108,-64,-149,,,13,,,,,
,806,,893,,751,902,775,,1021,926,,,905,657,831,,,2,,,,,
,-774,-1,3547,,2558,3462,3356,,3828,3914,,,3471,2647,3908,,,-5,,,,,
,-116,-11,1047,,597,842,1068,,1273,1128,,,1262,654,1428,,,8,,,,,
,266,1,10,,-39,13,85,,58,69,,,170,-30,167,,,-12,,,,,
,-54,-22,-464,,-481,-649,-463,,-1139,-846,,,-989,-783,-649,,,-3,,,,,
,-42,20,-3547,,-2507,-3459,-3347,,-3639,-3924,,,-3684,-2733,-3890,,,-2,,,,,
,-0,2,-1359,,-925,-1095,-1200,,-1420,-1219,,,-1264,-600,-1381,,,-1,,,,,
,45,,37,,99,-15,-93,,-153,-81,,,-158,17,-377,,,10,,,,,
,312,-5,849,,656,845,656,,915,909,,,674,731,776,,,-1,,,,,
,-404,3,3399,,2431,3352,3260,,3920,3901,,,3431,2634,3877,,,4,,,,,
,-117,-3,1127,,677,978,1218,,1450,1215,,,1230,575,1490,,,-2,,,,,
,240,-16,80,,114,9,99,,123,52,,,188,85,210,,,16,,,,,
,-45,-12,-1226,,-798,-1028,-907,,-983,-994,,,-734,-586,-816,,,-8,,,,,
,-66,1,-4353,,-2951,-3774,-3764,,-4050,-4008,,,-3569,-2633,-3971,,,-9,,,,,
,208,,-1288,,-758,-1021,-1173,,-1374,-1212,,,-1343,-615,-1382,,,5,,,,,
,-231,11,1033,,387,312,378,,96,-74,,,-33,22,59,,,10,,,,,
,-38,-9,1102,,845,940,865,,997,890,,,936,740,794,,,-7,,,,,
,44,9,3562,,2628,3437,3391,,3841,3919,,,3562,2718,3912,,,-10,,,,,
,704,-2,1045,,623,935,1209,,1295,1260,,,1137,652,1686,,,16,,,,,
,-684,-8,-270,,-77,21,146,,154,103,,,198,-18,73,,,-6,,,,,
,42,11,-602,,-656,-803,-625,,-804,-950,,,-703,-734,-770,,,8,,,,,
,-44,-10,-3277,,-2395,-3327,-3199,,-3833,-3881,,,-3512,-2717,-3948,,,-6,,,,,
,-115,-22,-1356,,-666,-898,-1066,,-1447,-1090,,,-1393,-585,-1505,,,-3,,,,,
,-33,20,-70,,40,8,-88,,-23,12,,,-224,-22,-150,,,2,,,,,
,-14,,546,,663,778,567,,1100,878,,,850,673,801,,,-11,,,,,
,63,-19,3245,,2188,3277,3252,,3328,3810,,,3705,2761,3949,,,-6,,,,,
,808,21,1162,,647,877,1199,,1283,1121,,,1237,607,1504,,,8,,,,,
,-722,-21,140,,145,-7,116,,190,47,,,256,190,313,,,13,,,,,
,34,,-777,,-730,-828,-735,,-870,-864,,,-685,-683,-940,,,-8,,,,,
,-149,-11,-3426,,-2465,-3334,-3246,,-3801,-3853,,,-3660,-2736,-3925,,,1,,,,,
,117,-1,-1130,,-617,-941,-1089,,-1206,-1197,,,-1274,-688,-1400,,,-5,,,,,
,291,1,188,,133,51,-30,,15,-22,,,-158,-87,-266,,,-4,,,,,
,-169,11,847,,787,904,736,,846,950,,,716,757,699,,,-6,,,,,
,-213,-11,3275,,2443,3365,3249,,3818,3938,,,3427,2663,3980,,,2,,,,,
,439,,921,,528,877,1092,,1282,1170,,,1296,559,1438,,,13,,,,,
,-459,13,90,,-28,-30,44,,136,50,,,354,17,82,,,5,,,,,
,235,-14,-693,,-754,-895,-679,,-977,-990,,,-808,-686,-653,,,-10,,,,,
,1472,1,-3547,,-2514,-3467,-3254,,-4051,-3975,,,-3801,-2606,-3694,,,-5,,,,,
,-1577,1,-1053,,-495,-840,-1101,,-1140,-1111,,,-1182,-590,-1453,,,,,,,,
,-54,11,157,,56,125,-12,,81,-19,,,16,-2,-193,,,10,,,,,
,12,-30,658,,555,768,614,,837,831,,,926,768,908,,,-1,,,,,
,-48,18,3547,,2563,3349,3256,,3907,3841,,,3795,2747,3848,,,1,,,,,
,-79,-1,1189,,723,955,1242,,1237,1154,,,1210,707,1551,,,6,,,,,
,73,2,212,,125,173,287,,157,102,,,-32,8,189,,,-5,,,,,
,-157,,-777,,-712,-884,-767,,-819,-928,,,-667,-720,-820,,,-7,,,,,
,247,,-3469,,-2653,-3514,-3368,,-3925,-3913,,,-3472,-2680,-3860,,,3,,,,,
,-53,-21,-1148,,-677,-1007,-1182,,-1403,-1218,,,-1254,-617,-1500,,,4,,,,,
,323,-11,-139,,3,15,-20,,-272,-28,,,-290,29,-196,,,-2,,,,,
,1161,27,665,,667,938,832,,870,968,,,882,744,873,,,9,,,,,
,-1472,14,3362,,2438,3403,3381,,3893,3862,,,3614,2669,4003,,,-12,,,,,
,-15,-41,1179,,639,929,1162,,1342,1132,,,1144,600,1599,,,3,,,,,
,762,1,69,,166,64,168,,160,32,,,81,15,283,,,1,,,,,
,-132,,-878,,-955,-969,-804,,-1117,-999,,,-881,-703,-757,,,-9,,,,,
,-712,10,-3600,,-2414,-3373,-3440,,-3798,-3868,,,-3599,-2731,-4019,,,8,,,,,
,18,-10,-1014,,-547,-847,-1139,,-1122,-1047,,,-1309,-736,-1631,,,6,,,,,
,44,8,-141,,-145,-100,-143,,-86,-45,,,-91,-81,-294,,,,,,,,
,34,-8,724,,687,793,633,,918,897,,,921,749,673,,,-12,,,,,
,250,11,3417,,2534,3319,3206,,3966,3888,,,3718,2709,3776,,,-2,,,,,
,-307,-11,913,,434,832,1101,,992,1144,,,1269,569,1576,,,3,,,,,
,403,-10,149,,31,46,185,,19,70,,,-135,-29,370,,,9,,,,,
,-166,8,-750,,-719,-893,-775,,-682,-954,,,-741,-705,-1007,,,-4,,,,,
,-31,-13,-3472,,-2551,-3512,-3355,,-3945,-4015,,,-3469,-2615,-3973,,,,,,,,
,-4,24,-1014,,-483,-879,-1080,,-1350,-1156,,,-1224,-535,-1474,,,-3,,,,,
,5278,-22,43,,78,84,-45,,29,61,,,-27,-53,-170,,,4,,,,,
,-3771,-6,806,,737,857,712,,1054,945,,,992,678,753,,,-6,,,,,
,-1727,-7,3403,,2532,3309,3259,,3998,3852,,,3667,2629,3870,,,,,,,,
,-75,6,1228,,593,874,1230,,1247,1072,,,1241,648,1558,,,-3,,,,,
,-60,-13,141,,57,96,232,,-92,26,,,-47,68,281,,,-1,,,,,
,115,2,-796,,-730,-823,-768,,-879,-938,,,-677,-655,-745,,,12,,,,,
,-98,-1,-3633,,-2600,-3491,-3445,,-3771,-3956,,,-3497,-2657,-4015,,,6,,,,,
,221,1,-1104,,-502,-867,-1070,,-1198,-1141,,,-1318,-645,-1577,,,1,,,,,
,-169,12,39,,128,40,25,,-153,-60,,,-182,87,-67,,,-7,,,,,
,45,-13,734,,542,813,681,,707,923,,,848,810,812,,,-7,,,,,
,546,11,3339,,2510,3387,3213,,3908,3984,,,3513,2602,3933,,,-2,,,,,
,-403,-11,1208,,680,991,1151,,1362,1244,,,1066,480,1309,,,-6,,,,,
,-240,13,137,,83,57,81,,211,80,,,178,-40,166,,,8,,,,,
,118,-2,-806,,-610,-858,-698,,-1019,-973,,,-754,-704,-817,,,8,,,,,
,-155,-11,-3351,,-2432,-3322,-3188,,-3984,-3860,,,-3738,-2712,-3912,,,4,,,,,
,24,1,-983,,-544,-890,-1138,,-1181,-1125,,,-1293,-599,-1348,,,-3,,,,,
,216,-2,-339,,-247,-138,-275,,18,-121,,,-42,,-177,,,-4,,,,,
,30,2,13,,249,518,364,,911,817,,,830,695,684,,,7,,,,,
,-175,-1,3500,,2505,3292,3284,,3325,3791,,,3665,2756,4036,,,-6,,,,,
,10,-19,1987,,1088,1202,1424,,1534,1259,,,1205,643,1614,,,-9,,,,,
,-40,-11,629,,280,308,305,,335,197,,,44,-20,180,,,-5,,,,,
,115,,-851,,-767,-934,-832,,-800,-985,,,-724,-740,-830,,,5,,,,,
,241,-2,-4379,,-2910,-3789,-3757,,-4009,-4054,,,-3498,-2653,-3960,,,-2,,,,,
,-400,5,-993,,-514,-902,-1042,,-1353,-1183,,,-1252,-581,-1435,,,4,,,,,
,120,8,326,,226,157,160,,-36,25,,,-178,-12,-122,,,13,,,,,
,-21,,670,,663,835,703,,1024,943,,,847,652,742,,,-2,,,,,
,89,1,3268,,2306,3261,3231,,3896,3868,,,3698,2665,4028,,,-3,,,,,
,-233,-13,1014,,607,915,1166,,1478,1178,,,1436,638,1612,,,-1,,,,,
,191,2,359,,201,166,280,,129,107,,,232,40,75,,,-1,,,,,
,-115,11,-827,,-740,-898,-805,,-1059,-917,,,-847,-727,-849,,,12,,,,,
,636,-12,-3615,,-2526,-3416,-3484,,-3794,-3896,,,-3620,-2713,-3923,,,-5,,,,,
,-412,1,-1245,,-829,-1046,-1205,,-1286,-1233,,,-1055,-578,-1456,,,-10,,,,,
,-114,-21,-29,,3,-49,-48,,-149,-114,,,-124,1,-107,,,-7,,,,,
,-134,-1,1072,,993,1036,963,,888,970,,,642,681,664,,,11,,,,,
,30,2,3520,,2632,3404,3215,,3909,3929,,,3681,2736,3921,,,-4,,,,,
,255,19,1031,,508,925,1123,,1424,1167,,,1240,602,1556,,,-5,,,,,
,560,1,24,,-30,23,198,,146,12,,,198,-5,293,,,9,,,,,
,-852,,-592,,-560,-725,-591,,-1143,-953,,,-749,-708,-805,,,3,,,,,
,-54,-31,-3452,,-2518,-3429,-3319,,-3863,-3890,,,-3722,-2684,-3887,,,-11,,,,,
,173,9,-1028,,-544,-858,-1063,,-1332,-1061,,,-1397,-651,-1468,,,7,,,,,
,72,-12,-159,,-107,1,-86,,-130,26,,,-263,-92,-250,,,5,,,,,
,22,13,582,,554,715,625,,898,896,,,741,680,774,,,-13,,,,,
,-63,-1,3512,,2628,3408,3310,,3978,3890,,,3614,2661,3769,,,-6,,,,,
,18,2,1021,,736,993,1251,,1147,1147,,,1174,679,1452,,,-5,,,,,
,251,-12,109,,42,74,78,,61,70,,,227,36,126,,,6,,,,,
,-403,11,-603,,-584,-734,-702,,-806,-864,,,-838,-761,-738,,,7,,,,,
,82,,-3469,,-2510,-3374,-3285,,-3903,-3928,,,-3627,-2714,-3774,,,10,,,,,
,328,-13,-1086,,-566,-952,-1203,,-1204,-1233,,,-1026,-618,-1513,,,3,,,,,
,9,14,37,,-168,-47,-51,,-348,-61,,,-142,78,-3,,,-1,,,,,
,1713,-9,903,,839,977,814,,866,1013,,,677,699,868,,,-4,,,,,
,-1965,33,3338,,2467,3350,3264,,3982,3924,,,3638,2601,3965,,,-5,,,,,
,1798,-35,996,,442,771,1083,,1360,1123,,,1332,565,1595,,,6,,,,,
,-1888,-5,53,,106,2,175,,189,40,,,197,-20,35,,,-5,,,,,
,22,-16,-809,,-603,-807,-632,,-829,-975,,,-913,-661,-938,,,7,,,,,
,-51,22,-3385,,-2539,-3302,-3238,,-3960,-3832,,,-3732,-2677,-3912,,,7,,,,,
,7,-2,-1047,,-593,-891,-1137,,-1565,-1178,,,-1259,-563,-1369,,,-16,,,,,
,-39,-2,-115,,-12,-92,-270,,237,-102,,,74,-24,-222,,,-2,,,,,
,-24,-15,733,,704,737,576,,968,806,,,1035,698,624,,,9,,,,,
,119,-15,3503,,2491,3324,3266,,3765,3874,,,3600,2704,3783,,,1,,,,,
,75,13,1039,,522,853,1116,,1175,1190,,,1081,599,1554,,,-16,,,,,
,-214,,-16,,-40,3,102,,167,36,,,280,18,250,,,3,,,,,
,227,-11,-890,,-742,-937,-792,,-865,-1025,,,-781,-737,-888,,,6,,,,,
,453,,-3306,,-2439,-3371,-3228,,-3838,-3936,,,-3502,-2683,-4085,,,1,,,,,
,-715,-1,-814,,-369,-783,-951,,-1258,-1105,,,-1237,-517,-1465,,,6,,,,,
,709,1,-91,,40,27,-96,,-130,-3,,,-243,19,-109,,,10,,,,,
,-718,,779,,836,960,814,,1023,987,,,799,678,846,,,-5,,,,,
,-17,,3444,,2370,3402,3461,,3865,3934,,,3546,2646,4023,,,-8,,,,,
,273,,1011,,412,767,1060,,1120,1064,,,1143,653,1630,,,-2,,,,,
,-107,,8,,3,-80,21,,-2,-19,,,40,51,166,,,3,,,,,
,-35,-24,-942,,-707,-812,-674,,-727,-871,,,-835,-716,-643,,,-7,,,,,
,70,14,-3434,,-2581,-3375,-3215,,-4320,-3905,,,-3701,-2714,-3745,,,5,,,,,
,72,-1,-1047,,-545,-965,-1169,,-1172,-1208,,,-1122,-654,-1661,,,-10,,,,,
,-208,5,15,,33,-23,-55,,62,-52,,,28,42,-191,,,8,,,,,
,340,-18,758,,751,836,706,,895,908,,,877,746,806,,,8,,,,,
,-255,14,3615,,2549,3536,3430,,3882,3946,,,3521,2671,3929,,,,,,,,
,-138,4,1109,,526,976,1235,,1345,1247,,,1123,563,1567,,,-7,,,,,
,64,-15,-71,,-36,-40,24,,167,49,,,283,3,105,,,8,,,,,
,-10,,-757,,-661,-881,-759,,-861,-1001,,,-629,-665,-919,,,-2,,,,,
,-76,-3,-3541,,-2429,-3386,-3351,,-3924,-3918,,,-3566,-2658,-3969,,,-15,,,,,
,190,23,-1138,,-528,-846,-1078,,-1246,-1047,,,-1376,-658,-1498,,,3,,,,,
,1991,-10,-86,,-76,-8,-39,,-88,-3,,,-278,-114,-143,,,5,,,,,
,-2112,-7,769,,594,795,658,,904,886,,,811,668,831,,,9,,,,,
,-1,-11,3522,,2569,3361,3233,,3893,3852,,,3689,2656,3742,,,-9,,,,,
,161,28,1079,,661,832,1042,,1190,1100,,,1252,698,1430,,,6,,,,,
,-189,-28,-49,,-40,-21,111,,59,51,,,277,139,304,,,-4,,,,,
,22,,-747,,-817,-837,-740,,-856,-908,,,-789,-684,-678,,,-6,,,,,
,-62,-11,-3513,,-2623,-3475,-3395,,-3919,-3940,,,-3592,-2663,-3801,,,-4,,,,,
,288,10,-1162,,-629,-1014,-1168,,-1322,-1205,,,-980,-547,-1544,,,2,,,,,
,541,,-178,,-16,-62,-102,,-27,-15,,,36,56,-300,,,3,,,,,
,-870,18,1048,,931,1203,1030,,710,1128,,,265,571,873,,,7,,,,,
,-28,-44,3548,,2561,3478,3412,,3786,3953,,,3493,2673,4059,,,9,,,,,
,232,26,1060,,535,795,1096,,1562,1111,,,1388,615,1663,,,-9,,,,,
,-6,,-48,,-15,-64,184,,156,-42,,,142,-6,269,,,-4,,,,,
,-196,-27,-785,,-600,-868,-740,,-921,-967,,,-810,-676,-889,,,-4,,,,,
,-7,26,-3558,,-2540,-3402,-3404,,-3825,-3872,,,-3541,-2633,-3814,,,8,,,,,
,245,-9,-1042,,-576,-897,-1148,,-1149,-1128,,,-1099,-530,-1427,,,-3,,,,,
,-95,11,5,,-74,-18,-16,,-100,-47,,,-125,18,-45,,,-10,,,,,
,83,-27,705,,680,833,763,,823,945,,,902,748,665,,,8,,,,,
,-107,26,3649,,2565,3429,3355,,3699,3907,,,3513,2680,3861,,,1,,,,,
,463,-11,1271,,673,1041,1227,,1286,1205,,,1150,564,1616,,,-1,,,,,
,-284,12,-251,,-115,-24,70,,147,63,,,271,-2,129,,,3,,,,,
,14,-1,-866,,-711,-907,-759,,-837,-953,,,-806,-805,-940,,,2,,,,,
,1510,1,-3457,,-2467,-3430,-3380,,-3898,-3941,,,-3657,-2664,-3980,,,-2,,,,,
,-1819,-15,-1026,,-474,-790,-1098,,-1341,-1068,,,-1297,-580,-1564,,,-2,,,,,
,355,-30,91,,104,177,37,,-6,81,,,-263,-156,-272,,,-5,,,,,
,-418,-2,487,,564,711,535,,905,877,,,821,701,795,,,-3,,,,,
,154,20,3265,,2127,3208,3200,,3626,3799,,,3749,2700,3836,,,5,,,,,
,-106,16,823,,514,828,1048,,1179,1090,,,1255,588,1397,,,-5,,,,,
,-25,-30,-261,,69,78,49,,193,149,,,-263,-73,233,,,9,,,,,
,734,30,-630,,-565,-642,-397,,-1181,-881,,,-1007,-714,-562,,,-2,,,,,
,-718,-15,-2732,,-2335,-3175,-2847,,-3707,-3892,,,-3302,-2638,-3828,,,-2,,,,,
,183,-18,-626,,-356,-815,-1065,,-1001,-1134,,,-1168,-655,-1458,,,-6,,,,,
,-169,-15,-492,,-206,-217,-382,,-152,-94,,,-118,28,-231,,,12,,,,,
,7,,343,,532,753,652,,717,877,,,874,818,868,,,-1,,,,,
,34,-3,3460,,2589,3466,3332,,3930,3887,,,3663,2680,3921,,,-6,,,,,
,-138,15,1150,,570,899,1168,,1362,1098,,,1298,637,1536,,,,,,,,
,281,1,90,,1,-23,137,,187,10,,,198,7,208,,,-6,,,,,
,12,-14,-1068,,-727,-975,-841,,-965,-973,,,-807,-650,-759,,,-1,,,,,
,-45,13,-3762,,-2537,-3516,-3499,,-4025,-3937,,,-3597,-2594,-3781,,,10,,,,,
,60,2,-1269,,-721,-958,-1208,,-1410,-1114,,,-1349,-651,-1255,,,5,,,,,
,-159,-15,-46,,-46,-16,-91,,24,6,,,63,-33,-395,,,2,,,,,
,223,4,1050,,829,1004,894,,1038,982,,,873,633,678,,,3,,,,,
,-201,9,3690,,2726,3548,3538,,3908,3936,,,3466,2694,3999,,,-10,,,,,
,-44,-20,1147,,700,922,1247,,1270,1138,,,1273,679,1595,,,-2,,,,,
,1333,-10,241,,140,153,260,,244,119,,,168,-80,96,,,6,,,,,
,-1358,1,-668,,-520,-717,-594,,-687,-873,,,-781,-773,-772,,,-9,,,,,
,117,-1,-3443,,-2625,-3391,-3201,,-3935,-3943,,,-3641,-2722,-3937,,,-3,,,,,
,-128,,-1103,,-613,-970,-1125,,-1431,-1247,,,-1252,-550,-1484,,,9,,,,,
,200,20,-64,,95,-47,-177,,-75,-45,,,-46,-10,-308,,,5,,,,,
,-203,-33,734,,442,815,669,,835,943,,,865,685,844,,,-5,,,,,
,-39,13,3525,,2586,3470,3340,,4052,3915,,,3467,2551,3917,,,-3,,,,,
,198,1,1035,,510,821,1054,,1291,1102,,,1350,630,1469,,,10,,,,,
,210,-2,216,,120,64,234,,-302,6,,,176,61,67,,,2,,,,,
,-280,3,-841,,-638,-849,-746,,-807,-936,,,-868,-692,-724,,,2,,,,,
,-161,-2,-3355,,-2447,-3283,-3224,,-3775,-3779,,,-3640,-2666,-3755,,,-2,,,,,
,564,1,-1109,,-628,-913,-1112,,-1136,-1125,,,-1125,-592,-1432,,,-1,,,,,
,-483,-12,-130,,-122,-108,-178,,-70,-137,,,64,28,-168,,,-6,,,,,
,-27,-2,888,,802,886,833,,921,912,,,818,795,840,,,-9,,,,,
,2102,29,3426,,2532,3404,3288,,3799,3920,,,3610,2732,3900,,,1,,,,,
,-1796,4,993,,494,871,1084,,1236,1162,,,1155,542,1513,,,8,,,,,
,-119,-48,-88,,-40,-84,47,,77,21,,,94,-47,207,,,4,,,,,
,403,2,-935,,-851,-919,-798,,-960,-969,,,-757,-722,-754,,,-17,,,,,
,-602,-5,-3544,,-2519,-3478,-3417,,-3980,-3905,,,-3612,-2617,-3829,,,20,,,,,
,12,-1,-889,,-397,-765,-1019,,-1282,-1028,,,-1309,-656,-1676,,,8,,,,,
,223,1,18,,-38,15,-89,,-13,-15,,,-170,-105,-275,,,-7,,,,,
,-234,2,699,,594,816,653,,945,926,,,885,691,725,,,1,,,,,
,165,-2,3406,,2481,3385,3294,,3941,3832,,,3661,2615,3747,,,-5,,,,,
,-95,1,1108,,669,932,1197,,1199,1149,,,1079,625,1610,,,-2,,,,,
,-50,-2,112,,143,117,159,,73,132,,,26,54,236,,,-5,,,,,
,-126,-12,-964,,-663,-847,-816,,-767,-933,,,-793,-770,-868,,,3,,,,,
,548,8,-3640,,-2744,-3610,-3520,,-3928,-3999,,,-3631,-2724,-3881,,,2,,,,,
,-498,7,-1360,,-881,-1137,-1230,,-1386,-1242,,,-1242,-630,-1494,,,-4,,,,,
,7,-2,-116,,-26,-88,-53,,-256,-76,,,-192,5,-152,,,-5,,,,,
,-113,-13,811,,744,861,679,,829,954,,,725,732,837,,,-1,,,,,
,45,13,3441,,2271,3297,3208,,3791,3873,,,3706,2727,4003,,,11,,,,,
,292,5,1011,,606,854,1036,,1434,1115,,,1411,642,1524,,,3,,,,,
,-234,-14,87,,72,82,210,,192,38,,,63,-20,176,,,-9,,,,,
,2274,9,-645,,-491,-759,-546,,-664,-905,,,-816,-648,-766,,,10,,,,,
,-2339,-10,-3189,,-2338,-3228,-3097,,-4110,-3841,,,-3498,-2615,-3898,,,3,,,,,
,-89,8,-1148,,-582,-838,-1052,,-1285,-1101,,,-1171,-595,-1434,,,-2,,,,,
,221,-28,-302,,-144,-67,-120,,,-83,,,-47,-26,-226,,,-8,,,,,
,548,,797,,633,841,847,,877,873,,,854,721,755,,,-14,,,,,
,-673,-2,3479,,2542,3385,3338,,3793,3879,,,3660,2781,3886,,,4,,,,,
,38,3,716,,396,762,858,,1220,1172,,,1224,622,1478,,,12,,,,,
,-102,-1,6,,40,65,49,,249,108,,,105,-73,-57,,,-7,,,,,
,-22,,-682,,-618,-787,-717,,-821,-932,,,-947,-796,-854,,,6,,,,,
,470,1,-3306,,-2520,-3397,-3340,,-3976,-3880,,,-3758,-2718,-3940,,,-9,,,,,
,-337,-2,-1075,,-553,-903,-1108,,-1403,-1127,,,-1292,-553,-1575,,,5,,,,,
,64,,-69,,23,35,-55,,-90,-6,,,-167,-26,-123,,,,,,,,
,-135,4,861,,693,919,855,,1006,953,,,814,661,884,,,-2,,,,,
,88,1,3650,,2633,3461,3429,,4022,3913,,,3726,2649,3910,,,-2,,,,,
,-120,-4,1052,,473,850,1149,,1226,1117,,,1338,675,1653,,,7,,,,,
,296,-2,61,,136,46,57,,85,25,,,239,104,157,,,7,,,,,
,-202,-1,-650,,-558,-741,-784,,-874,-884,,,-827,-781,-991,,,-1,,,,,
,46,3,-3561,,-2642,-3514,-3516,,-3897,-3931,,,-3628,-2678,-3912,,,1,,,,,
,2,,-1026,,-602,-1018,-1218,,-1183,-1161,,,-1217,-600,-1491,,,2,,,,,
,315,-1,-194,,-58,-138,-110,,-118,-84,,,-198,12,-50,,,-5,,,,,
,2569,-3,687,,665,772,685,,797,894,,,806,758,790,,,-15,,,,,
,-1462,-1,3375,,2453,3397,3281,,3875,3894,,,3595,2647,3850,,,7,,,,,
,-1288,4,1064,,547,935,1193,,1269,1154,,,1217,570,1500,,,2,,,,,
,-8,-1,139,,-8,62,209,,141,18,,,190,-24,249,,,-1,,,,,
,233,1,-665,,-574,-791,-613,,-790,-1009,,,-650,-696,-673,,,12,,,,,
,-224,-18,-3479,,-2476,-3415,-3290,,-3945,-3879,,,-3615,-2635,-3697,,,,,,,,
,61,,-1006,,-653,-848,-1042,,-1380,-1088,,,-1366,-722,-1558,,,-5,,,,,
,1339,,-72,,-82,-41,-54,,-135,-36,,,-228,-74,-143,,,-7,,,,,
,-1448,,420,,561,758,637,,887,944,,,849,717,994,,,-5,,,,,
,1831,,3056,,2354,3204,3116,,3880,3829,,,3741,2723,3977,,,5,,,,,
,-311,23,2031,,1103,1210,1541,,1427,1186,,,1152,656,1508,,,5,,,,,
,-1583,-23,695,,166,284,410,,295,102,,,279,4,31,,,-2,,,,,
,12,,-884,,-776,-848,-724,,-1313,-966,,,-895,-689,-640,,,2,,,,,
,48,,-3556,,-2465,-3417,-3361,,-3654,-3926,,,-3565,-2724,-4030,,,12,,,,,
,-193,-7,-657,,-370,-805,-985,,-1039,-1170,,,-1025,-568,-1627,,,-13,,,,,
,285,-1,-75,,12,-70,-196,,-271,-48,,,-121,85,-205,,,-6,,,,,
,-3,10,738,,685,897,673,,915,987,,,841,752,811,,,-14,,,,,
,-65,-2,3897,,2674,3608,3563,,4037,4013,,,3549,2627,3919,,,14,,,,,
,51,,963,,465,777,1050,,1283,1078,,,1254,591,1550,,,2,,,,,
,62,-41,-1,,-66,-61,95,,27,-10,,,74,7,149,,,2,,,,,
,76,17,-859,,-639,-808,-698,,-957,-895,,,-823,-615,-807,,,-1,,,,,
,-131,16,-3388,,-2523,-3295,-3236,,-3845,-3813,,,-3556,-2664,-3884,,,6,,,,,
,57,-30,-1069,,-598,-871,-1128,,-1227,-1130,,,-1138,-606,-1493,,,-9,,,,,
,-181,,-171,,-90,-41,-175,,42,-70,,,-30,-23,-207,,,-2,,,,,
,495,7,601,,593,767,757,,805,880,,,828,731,794,,,4,,,,,
,-555,-7,3447,,2564,3342,3278,,3720,3923,,,3460,2703,3827,,,2,,,,,
,132,-5,870,,345,694,902,,1138,1111,,,1074,572,1558,,,-2,,,,,
,132,-10,-195,,-163,-139,-72,,77,-16,,,84,-28,110,,,-3,,,,,
,-369,-3,-921,,-783,-925,-831,,-905,-942,,,-876,-745,-899,,,3,,,,,
,181,13,-3601,,-2638,-3583,-3531,,-3946,-3974,,,-3572,-2607,-3914,,,10,,,,,
,151,,-1009,,-486,-858,-1070,,-1328,-1109,,,-1365,-617,-1595,,,-8,,,,,
,405,-14,30,,64,121,-11,,-49,16,,,-185,-13,-125,,,-1,,,,,
,-621,14,753,,672,846,640,,956,921,,,922,777,864,,,3,,,,,
,200,-11,3378,,2528,3402,3320,,3938,3898,,,3778,2719,3904,,,-6,,,,,
,-13,11,1124,,624,838,1103,,1303,1105,,,1395,669,1468,,,3,,,,,
,100,-13,223,,7,45,144,,1,82,,,227,121,45,,,2,,,,,
,-211,14,-1028,,-775,-874,-785,,-837,-860,,,-758,-668,-757,,,-14,,,,,
,-134,-11,-3403,,-2420,-3321,-3262,,-3746,-3875,,,-3610,-2760,-4019,,,4,,,,,
,62,-21,-1046,,-647,-923,-1098,,-1257,-1194,,,-1237,-614,-1451,,,8,,,,,
,-6,18,-131,,-128,-123,-162,,-327,-150,,,-247,21,-104,,,1,,,,,
,30,-12,830,,828,932,775,,772,922,,,682,704,891,,,-9,,,,,
,166,15,3506,,2653,3536,3429,,3978,3995,,,3566,2643,3937,,,-3,,,,,
,-104,-16,1012,,525,867,1112,,1355,1147,,,1291,596,1613,,,12,,,,,
,14,13,142,,14,78,243,,72,27,,,9,-64,202,,,5,,,,,
,-86,-17,-624,,-585,-790,-622,,-915,-930,,,-771,-707,-922,,,1,,,,,
,-26,,-3722,,-2571,-3459,-3374,,-3912,-3915,,,-3501,-2570,-3906,,,-5,,,,,
,-53,-12,-1156,,-698,-966,-1185,,-1236,-1169,,,-1202,-570,-1406,,,2,,,,,
,-21,13,110,,-51,-33,-99,,-12,-91,,,-72,-43,-186,,,7,,,,,
,114,1,713,,603,849,798,,854,934,,,734,685,848,,,-6,,,,,
,64,-1,3351,,2485,3361,3324,,3834,3929,,,3619,2737,3944,,,-2,,,,,
,271,7,1140,,656,928,1129,,1265,1242,,,1227,620,1451,,,4,,,,,
,-405,-8,50,,63,92,136,,124,121,,,28,-48,144,,,-6,,,,,
,-41,-13,-857,,-722,-894,-755,,-870,-963,,,-864,-753,-809,,,-2,,,,,
,148,9,-3558,,-2672,-3521,-3356,,-3955,-3997,,,-3651,-2671,-3828,,,3,,,,,
,1645,5,-1171,,-793,-1014,-1145,,-1483,-1230,,,-1351,-552,-1400,,,-1,,,,,
,2052,-19,-171,,63,-18,-130,,-47,-14,,,-132,-19,-245,,,3,,,,,
,-3176,-13,620,,713,869,635,,1181,977,,,827,682,870,,,3,,,,,
,-88,20,3555,,2540,3381,3195,,4040,3879,,,3880,2679,3792,,,-7,,,,,
,-230,,1419,,523,952,1187,,945,1163,,,1252,651,1586,,,-10,,,,,
,818,6,62,,223,94,94,,222,83,,,26,55,69,,,11,,,,,
,-1054,-34,-867,,-666,-818,-773,,-1008,-929,,,-804,-665,-911,,,11,,,,,
,108,12,-3462,,-2607,-3387,-3321,,-3911,-3892,,,-3611,-2703,-3946,,,-3,,,,,
,-291,-4,-936,,-536,-839,-974,,-1164,-1092,,,-1336,-692,-1498,,,-7,,,,,
,172,,17,,-75,-63,-135,,-131,-69,,,-86,-8,-142,,,-10,,,,,
,142,-2,628,,652,758,688,,773,933,,,767,738,788,,,4,,,,,
,-231,,3352,,2525,3390,3308,,3776,3933,,,3432,2622,3883,,,-4,,,,,
,191,2,1272,,588,988,1133,,1377,1141,,,1268,633,1547,,,8,,,,,
,244,-3,104,,-22,-18,58,,203,9,,,230,18,217,,,-8,,,,,
,-475,,-777,,-579,-839,-737,,-809,-969,,,-731,-739,-792,,,8,,,,,
,-56,5,-3242,,-2398,-3291,-3204,,-3963,-3883,,,-3715,-2684,-3943,,,14,,,,,
,74,-15,-775,,-602,-802,-1009,,-1417,-1158,,,-1479,-593,-1469,,,-8,,,,,
,564,62,81,,84,9,-190,,26,5,,,-149,-51,-174,,,-2,,,,,
,-280,-60,720,,752,878,694,,1013,979,,,919,659,791,,,-2,,,,,
,155,8,3805,,2519,3513,3608,,3798,3908,,,3593,2667,3953,,,2,,,,,
,658,-16,1947,,837,1150,1526,,1267,1162,,,1280,672,1532,,,-3,,,,,
,166,1,524,,210,223,284,,108,112,,,166,17,129,,,5,,,,,
,-1090,5,-410,,-509,-624,-560,,-815,-888,,,-974,-755,-792,,,-12,,,,,
,-113,-6,-3161,,-2409,-3324,-3288,,-3688,-3912,,,-3540,-2737,-3928,,,1,,,,,
,100,17,-1040,,-644,-892,-1046,,-1236,-1166,,,-1135,-655,-1576,,,4,,,,,
,-58,-5,419,,162,166,175,,-196,-24,,,-214,41,-198,,,12,,,,,
,-145,,1129,,792,940,694,,960,920,,,701,731,760,,,-9,,,,,
,18,-14,3291,,2450,3368,3231,,4132,3961,,,3700,2644,3825,,,-1,,,,,
,67,2,1402,,860,1065,1272,,988,1248,,,1219,619,1565,,,9,,,,,
,667,13,282,,-16,38,150,,240,39,,,192,36,269,,,-3,,,,,
,-646,4,-744,,-734,-891,-713,,-1061,-1008,,,-710,-601,-830,,,-4,,,,,
,16,4,-3555,,-2554,-3422,-3349,,-3870,-3914,,,-3589,-2602,-3953,,,-5,,,,,
,253,-2,-1105,,-581,-938,-1216,,-1155,-1199,,,-1183,-607,-1412,,,-5,,,,,
,-316,,-34,,-119,-47,-158,,-7,-80,,,-13,-18,-189,,,6,,,,,
,66,-2,998,,692,882,723,,940,868,,,927,718,704,,,-3,,,,,
,-61,-10,3343,,2561,3380,3261,,3773,3910,,,3535,2720,3906,,,-2,,,,,
,72,-19,854,,620,938,1079,,1300,1250,,,1092,610,1564,,,3,,,,,
,-208,-1,32,,27,22,15,,212,133,,,141,-28,153,,,3,,,,,
,275,20,-1037,,-784,-947,-757,,-866,-926,,,-866,-782,-760,,,2,,,,,
,-92,-17,-3932,,-2679,-3550,-3415,,-3966,-3967,,,-3714,-2763,-3826,,,7,,,,,
,337,-2,-1333,,-638,-973,-1153,,-1514,-1155,,,-1426,-674,-1479,,,-4,,,,,
,-70,1,-48,,24,-12,-117,,-122,1,,,-144,32,-275,,,-8,,,,,
,-75,11,417,,402,718,567,,796,880,,,858,700,790,,,-6,,,,,
,-278,-10,3192,,2389,3324,3261,,3788,3884,,,3613,2713,3985,,,10,,,,,
,122,-3,1189,,700,977,1247,,1355,1116,,,1331,682,1560,,,8,,,,,
,-8,1,58,,22,12,113,,49,-1,,,219,103,175,,,-8,,,,,
,12,2,-829,,-503,-742,-671,,-725,-832,,,-877,-713,-793,,,-1,,,,,
,125,25,-3450,,-2418,-3342,-3304,,-3627,-3832,,,-3580,-2708,-3819,,,11,,,,,
,-55,-27,-1164,,-572,-894,-1164,,-865,-1117,,,-1215,-662,-1508,,,,,,,,
,29,-2,-75,,30,-7,-46,,-401,-52,,,-93,-53,-302,,,-20,,,,,
,1572,1,631,,678,820,722,,626,932,,,713,729,718,,,4,,,,,
,-1542,4,3259,,2359,3347,3242,,3834,3940,,,3486,2686,3908,,,1,,,,,
,-1,-4,825,,371,810,1100,,1255,1113,,,1254,661,1639,,,5,,,,,
,64,,-2,,-80,-20,129,,98,-28,,,223,85,345,,,9,,,,,
,-0,2,-900,,-675,-856,-705,,-920,-960,,,-805,-731,-988,,,-2,,,,,
,450,-28,-3573,,-2544,-3488,-3413,,-4065,-3910,,,-3662,-2633,-3894,,,-7,,,,,
,-159,26,-1032,,-461,-870,-1206,,-1175,-1075,,,-1238,-638,-1571,,,,,,,,
,-152,-33,-203,,-17,-39,-264,,57,-50,,,-140,-85,-305,,,6,,,,,
,-344,32,610,,371,703,619,,808,848,,,823,709,851,,,4,,,,,
,-126,,3357,,2549,3294,3211,,3950,3879,,,3750,2767,3851,,,,,,,,
,855,-29,890,,350,723,1004,,1130,1088,,,1334,724,1457,,,-5,,,,,
,-807,1,-52,,-108,27,160,,-58,82,,,-72,-44,159,,,1,,,,,
,99,29,-861,,-719,-840,-690,,-864,-948,,,-815,-797,-856,,,-17,,,,,
,-161,-42,-3570,,-2550,-3435,-3293,,-3862,-3935,,,-3558,-2716,-3903,,,-1,,,,,
,176,16,-1057,,-535,-845,-1042,,-1268,-1103,,,-1439,-618,-1440,,,6,,,,,
,257,2,10,,123,38,-150,,-161,31,,,-201,49,-219,,,6,,,,,
,-382,-2,880,,708,956,767,,786,1050,,,776,714,691,,,-5,,,,,
,102,,3341,,2505,3379,3275,,3991,3882,,,3689,2621,3806,,,3,,,,,
,-9,-7,1011,,524,817,1126,,1328,1066,,,1299,585,1618,,,-3,,,,,
,-140,3,23,,46,-22,82,,97,,,,190,40,326,,,-5,,,,,
,215,-12,-596,,-568,-812,-680,,-912,-916,,,-778,-672,-720,,,11,,,,,
,-225,,-3407,,-2530,-3410,-3309,,-3763,-3884,,,-3576,-2655,-3839,,,8,,,,,
,181,12,-1224,,-701,-947,-1182,,-1209,-1155,,,-1232,-551,-1415,,,,,,,,
,192,-12,-213,,-107,-126,-249,,-143,-127,,,-127,40,-48,,,-6,,,,,
,1211,9,654,,560,737,660,,765,869,,,827,768,881,,,2,,,,,
,355,10,3419,,2475,3401,3306,,3683,3869,,,3558,2753,4008,,,-1,,,,,
,-1798,-3,1089,,593,854,1023,,1463,1139,,,1320,632,1572,,,-6,,,,,
,42,-35,40,,-31,-96,-3,,260,12,,,286,5,186,,,-2,,,,,
,-93,19,-722,,-679,-906,-715,,-1180,-1012,,,-702,-730,-886,,,6,,,,,
,-80,-22,-3543,,-2584,-3474,-3271,,-3903,-3991,,,-3682,-2704,-3950,,,-12,,,,,
,1628,-9,-1030,,-533,-852,-1003,,-1350,-1166,,,-1365,-574,-1498,,,,,,,,
,-756,9,,,38,89,15,,-31,12,,,-188,-69,-201,,,-7,,,,,
,-809,,775,,725,968,863,,981,1001,,,751,614,811,,,12,,,,,
,97,-10,3646,,2655,3573,3453,,4055,3979,,,3709,2642,3853,,,19,,,,,
,-186,14,1333,,728,1029,1242,,1296,1157,,,1281,651,1452,,,-19,,,,,
,-18,,221,,128,69,85,,60,37,,,163,99,111,,,5,,,,,
,67,-13,-653,,-544,-760,-715,,-684,-845,,,-818,-731,-798,,,,,,,,
,129,12,-3406,,-2426,-3373,-3261,,-3796,-3871,,,-3557,-2752,-3879,,,-5,,,,,
,-113,-3,-1236,,-670,-979,-1117,,-1283,-1179,,,-1144,-648,-1461,,,-3,,,,,
,795,,-209,,-266,-165,-166,,-243,-122,,,-162,-24,-237,,,17,,,,,
,-665,-9,755,,711,852,685,,808,973,,,715,714,599,,,-3,,,,,
,-216,,3366,,2448,3365,3224,,3905,3915,,,3595,2626,3742,,,5,,,,,
,305,4,871,,326,648,811,,1245,1071,,,1376,635,1454,,,-10,,,,,
,-307,-4,-167,,-203,-203,-101,,18,-13,,,242,30,90,,,,,,,,
,100,-21,-725,,-694,-879,-742,,-1111,-989,,,-951,-734,-846,,,-1,,,,,
,-16,21,-3278,,-2325,-3244,-3398,,-3867,-3808,,,-3807,-2767,-3941,,,9,,,,,
,-223,,-1105,,-571,-849,-1187,,-1200,-1093,,,-1246,-611,-1433,,,-6,,,,,
,148,,-182,,11,37,-73,,4,-32,,,-80,-5,-156,,,-3,,,,,
,105,2,623,,547,838,758,,858,939,,,614,669,948,,,,,,,,
,-178,-32,3429,,2552,3342,3270,,3841,3880,,,3547,2733,3907,,,-3,,,,,
,261,12,1753,,1110,1126,1330,,1499,1208,,,1353,640,1240,,,3,,,,,
,-126,1,189,,-274,-61,50,,15,-9,,,184,81,252,,,2,,,,,
,305,,-1405,,-1086,-1169,-1163,,-995,-1019,,,-755,-664,-694,,,2,,,,,
,-544,-1,-3424,,-2505,-3428,-3353,,-3840,-3945,,,-3550,-2703,-3831,,,6,,,,,
,72,-3,-838,,-447,-812,-929,,-1277,-1164,,,-1319,-603,-1412,,,-7,,,,,
,74,7,-352,,8,-13,-133,,-196,34,,,-272,40,-107,,,-12,,,,,
,-4,-3,774,,693,929,714,,930,1026,,,809,689,910,,,-6,,,,,
,-54,-5,3771,,2736,3629,3567,,4045,4025,,,3588,2590,3915,,,16,,,,,
,216,-8,1179,,601,966,1320,,1265,1144,,,1287,623,1530,,,1,,,,,
,-35,13,26,,15,-44,166,,18,-35,,,107,30,114,,,-4,,,,,
,257,-5,-701,,-615,-830,-738,,-892,-899,,,-818,-715,-902,,,5,,,,,
,-218,-30,-3473,,-2516,-3360,-3328,,-3781,-3813,,,-3487,-2713,-3910,,,2,,,,,
,-232,21,-1074,,-619,-927,-1151,,-1155,-1184,,,-1063,-619,-1536,,,-9,,,,,
,151,-17,-80,,-77,-105,-149,,-127,-144,,,-145,-36,-255,,,9,,,,,
,-104,18,760,,767,799,664,,769,890,,,639,720,781,,,-6,,,,,
,14,,3476,,2739,3513,3292,,3944,3954,,,3662,2713,3881,,,1,,,,,
,-13,-22,967,,496,861,1006,,1494,1131,,,1481,667,1516,,,-14,,,,,
,190,9,126,,-158,-19,127,,21,-14,,,159,-8,209,,,4,,,,,
,-142,-19,-675,,-702,-879,-664,,-1197,-983,,,-897,-686,-651,,,15,,,,,
,284,14,-3731,,-2650,-3573,-3371,,-3908,-3980,,,-3666,-2601,-3840,,,,,,,,
,-339,-4,-1016,,-450,-817,-1029,,-1226,-1056,,,-1259,-633,-1590,,,-19,,,,,
,8,3,18,,-3,17,-103,,-72,38,,,-61,7,-84,,,2,,,,,
,2,-13,656,,567,746,573,,943,916,,,779,701,905,,,8,,,,,
,-22,14,3383,,2486,3312,3107,,3882,3812,,,3627,2623,3763,,,7,,,,,
,509,-1,1193,,694,891,1066,,1246,1122,,,1304,668,1390,,,,,,,,
,-519,-12,146,,98,104,155,,133,138,,,176,87,152,,,-3,,,,,
,124,9,-697,,-593,-706,-607,,-802,-851,,,-831,-748,-807,,,3,,,,,
,1467,4,-3498,,-2614,-3417,-3262,,-3935,-3953,,,-3557,-2631,-3781,,,5,,,,,
,-997,,-982,,-623,-893,-1038,,-1318,-1188,,,-1270,-632,-1331,,,-14,,,,,
,-602,-34,97,,138,81,55,,-135,-51,,,-139,17,-25,,,-3,,,,,
,9,2,1145,,1096,1129,957,,1106,1034,,,939,742,743,,,16,,,,,
,1379,20,3599,,2694,3536,3444,,4120,3928,,,3703,2666,3852,,,-3,,,,,
,-1121,-2,1021,,215,797,1111,,1223,1088,,,1384,642,1552,,,2,,,,,
,55,-18,25,,,7,138,,104,53,,,-63,-22,261,,,-4,,,,,
,-262,5,-964,,-693,-913,-794,,-1054,-967,,,-1064,-718,-831,,,,,,,,
,357,-6,-3671,,-2692,-3573,-3534,,-4013,-3901,,,-3607,-2654,-3990,,,5,,,,,
,-264,1,-1086,,-714,-1009,-1281,,-1311,-1159,,,-1297,-704,-1602,,,-2,,,,,
,134,17,-243,,-196,-140,-234,,-61,-30,,,-139,-95,-307,,,-3,,,,,
,-378,-28,680,,680,848,729,,922,937,,,712,629,712,,,-1,,,,,
,736,11,3778,,2760,3538,3457,,3873,3955,,,3544,2709,3936,,,-5,,,,,
,-748,-1,1100,,605,923,1203,,1211,1127,,,1220,626,1420,,,12,,,,,
,225,-2,19,,-34,-31,105,,96,-26,,,209,70,227,,,4,,,,,
,-50,-2,-863,,-791,-1018,-855,,-823,-1063,,,-567,-624,-707,,,-10,,,,,
,233,-4,-3445,,-2561,-3431,-3297,,-3974,-3956,,,-3648,-2678,-3837,,,-4,,,,,
,-304,9,-1127,,-546,-893,-1103,,-1418,-1200,,,-1444,-610,-1387,,,-3,,,,,
,-48,-2,-23,,14,25,-33,,-94,8,,,-34,-17,-140,,,,,,,,
,105,1,1034,,855,1054,990,,1081,1060,,,838,637,727,,,5,,,,,
,-179,-9,3516,,2433,3476,3480,,3981,3970,,,3486,2642,4004,,,-3,,,,,
,54,-20,1075,,537,855,1043,,1255,1104,,,1234,618,1545,,,-4,,,,,
,52,20,52,,25,-38,-23,,14,-1,,,243,102,105,,,7,,,,,
,230,1,-750,,-572,-752,-647,,-897,-858,,,-866,-738,-964,,,-4,,,,,
,-284,-25,-3466,,-2516,-3361,-3282,,-3904,-3886,,,-3673,-2696,-3857,,,7,,,,,
,121,4,-1104,,-631,-960,-1155,,-1288,-1212,,,-1224,-621,-1474,,,9,,,,,
,52,-4,-181,,12,-99,-159,,-58,-109,,,32,48,-262,,,-3,,,,,
,621,,834,,827,912,791,,814,914,,,769,759,738,,,-15,,,,,
,-485,24,3584,,2549,3448,3348,,3848,3941,,,3487,2677,3987,,,7,,,,,
,-123,-1,1286,,669,970,1197,,1475,1217,,,1346,646,1569,,,4,,,,,
,-206,-32,129,,34,6,32,,271,-4,,,259,-3,178,,,,,,,,
,42,13,-873,,-831,-963,-876,,-985,-1039,,,-728,-661,-784,,,6,,,,,
,1296,-1,-3540,,-2506,-3408,-3359,,-4063,-3935,,,-3643,-2703,-4120,,,-8,,,,,
,161,19,-1057,,-433,-775,-1050,,-1276,-1042,,,-1416,-698,-1536,,,-3,,,,,
,-1497,-14,-157,,-131,-120,-188,,-2,-17,,,,-4,-155,,,-12,,,,,
,317,-8,645,,567,752,653,,867,862,,,882,746,769,,,5,,,,,
,-363,4,3362,,2463,3345,3250,,3796,3847,,,3577,2643,3769,,,8,,,,,
,-92,-13,1012,,602,868,1085,,1154,1175,,,1130,675,1640,,,-5,,,,,
,2112,12,-54,,23,20,31,,140,130,,,121,43,159,,,-2,,,,,
,-1853,-10,-708,,-728,-849,-783,,-801,-927,,,-603,-661,-917,,,5,,,,,
,1521,-11,-3442,,-2580,-3451,-3333,,-3818,-3920,,,-3609,-2689,-3804,,,-8,,,,,
,-1596,5,-1062,,-588,-967,-1163,,-1238,-1199,,,-1289,-643,-1473,,,5,,,,,
,-57,4,50,,129,-4,-90,,-137,-53,,,-125,88,-60,,,4,,,,,
,26,-22,960,,819,981,831,,891,1023,,,710,727,907,,,-1,,,,,
,88,4,3495,,2539,3407,3331,,3946,3911,,,3586,2640,3942,,,-8,,,,,
,-136,18,1267,,625,973,1236,,1381,1150,,,1290,571,1524,,,5,,,,,
,-29,-22,-10,,-14,-13,163,,94,-63,,,287,-4,121,,,-6,,,,,
,19,,-962,,-735,-970,-902,,-1061,-1010,,,-710,-649,-846,,,1,,,,,
,220,22,-3542,,-2555,-3418,-3353,,-3894,-3845,,,-3772,-2689,-3756,,,13,,,,,
,-174,-19,-1102,,-618,-955,-1065,,-1267,-1141,,,-1417,-691,-1317,,,2,,,,,
,-47,-13,-200,,-257,-159,-195,,-71,-108,,,83,55,-207,,,,,,,,
,89,15,789,,663,805,764,,731,890,,,853,769,777,,,-3,,,,,
,-104,-2,3377,,2511,3390,3325,,3743,3874,,,3568,2733,3864,,,-2,,,,,
,1578,,977,,605,916,1037,,1372,1213,,,1193,526,1428,,,-3,,,,,
,-1648,-11,-167,,-45,1,19,,95,75,,,37,-87,75,,,,,,,,
,3,12,-475,,-617,-801,-568,,-864,-959,,,-836,-716,-675,,,,,,,,
,239,1,-2597,,-2192,-3181,-2887,,-3826,-3911,,,-3634,-2662,-3839,,,-7,,,,,
,-169,-13,-1166,,-588,-940,-1207,,-1317,-1144,,,-1178,-531,-1546,,,2,,,,,
,231,,-781,,-296,-235,-398,,-97,19,,,-59,52,-192,,,5,,,,,
,-300,,823,,659,855,742,,927,935,,,752,691,868,,,-5,,,,,
,147,-18,3559,,2541,3435,3281,,3934,3895,,,3570,2633,3708,,,2,,,,,
,-225,-1,950,,548,787,998,,1275,1106,,,1290,626,1389,,,5,,,,,
,142,,-78,,71,21,19,,41,68,,,72,-19,78,,,-7,,,,,
,49,6,-739,,-625,-810,-818,,-829,-879,,,-739,-703,-823,,,2,,,,,
,63,11,-3338,,-2544,-3413,-3348,,-3816,-3901,,,-3631,-2707,-3932,,,7,,,,,
,-32,-4,-1133,,-740,-1012,-1096,,-1328,-1208,,,-1379,-682,-1429,,,-3,,,,,
,-152,-13,-109,,-129,-141,-111,,-260,-153,,,-103,44,-82,,,-1,,,,,
,156,,923,,846,983,817,,827,983,,,815,780,805,,,-7,,,,,
,-116,,3361,,2506,3419,3289,,3831,3917,,,3605,2681,4015,,,7,,,,,
,222,1,938,,522,826,1040,,1325,1118,,,1293,625,1558,,,9,,,,,
,226,-4,180,,139,90,157,,250,67,,,140,-22,76,,,-8,,,,,
,-503,-10,-1027,,-755,-948,-797,,-1025,-997,,,-882,-721,-696,,,-3,,,,,
,-14,10,-3794,,-2665,-3538,-3439,,-4143,-3933,,,-3597,-2617,-3736,,,-2,,,,,
,301,,-1081,,-635,-907,-1117,,-1294,-1097,,,-1254,-543,-1297,,,-4,,,,,
,236,-10,76,,-10,-10,8,,53,-38,,,-210,-90,-115,,,,,,,,
,-358,,763,,686,857,789,,978,888,,,884,636,622,,,11,,,,,
,-21,,3551,,2603,3459,3435,,3789,3884,,,3503,2696,3911,,,5,,,,,
,1894,1,1219,,712,962,1171,,1204,1136,,,1232,667,1530,,,-8,,,,,
,-1759,,22,,24,80,98,,229,72,,,251,47,260,,,1,,,,,
,144,,-658,,-568,-739,-661,,-666,-864,,,-618,-726,-763,,,2,,,,,
,-38,-19,-3371,,-2443,-3319,-3230,,-3724,-3871,,,-3567,-2740,-4059,,,-1,,,,,
,-27,19,-953,,-402,-835,-1102,,-1276,-1148,,,-1267,-629,-1697,,,-3,,,,,
,0,,230,,232,234,128,,-114,115,,,-136,-48,-303,,,-2,,,,,
,-257,-19,748,,680,1002,825,,928,1031,,,858,672,717,,,-2,,,,,
,27,-3,3491,,2534,3494,3415,,3932,3899,,,3581,2672,3900,,,2,,,,,
,89,,1229,,579,884,1205,,1347,1090,,,1277,598,1543,,,8,,,,,
,-166,22,51,,-6,-72,51,,31,8,,,70,62,236,,,-17,,,,,
,250,-19,-889,,-725,-940,-894,,-999,-924,,,-750,-630,-818,,,7,,,,,
,-342,-12,-3533,,-2615,-3474,-3438,,-3843,-3903,,,-3619,-2714,-3936,,,8,,,,,
,-33,,-1107,,-607,-975,-1205,,-1157,-1160,,,-1262,-683,-1424,,,-5,,,,,
,2195,8,-65,,-60,-72,-155,,-61,-67,,,-73,3,-124,,,-1,,,,,
,100,-7,735,,633,780,669,,713,843,,,799,775,816,,,8,,,,,
,-2073,39,3599,,2582,3497,3369,,3787,3944,,,3620,2722,3877,,,-9,,,,,
,49,-28,1074,,653,989,1222,,1440,1184,,,1265,620,1565,,,2,,,,,
,-150,1,96,,67,62,186,,84,-5,,,165,-3,271,,,3,,,,,
,91,-12,-799,,-679,-883,-680,,-997,-1026,,,-855,-735,-597,,,1,,,,,
,109,-13,-3472,,-2472,-3448,-3349,,-3638,-3876,,,-3481,-2679,-4190,,,-2,,,,,
,-82,-1,-1036,,-641,-918,-1092,,-1718,-1117,,,-1379,-608,-1504,,,-12,,,,,
,73,13,-153,,-239,-147,-194,,-366,-79,,,-100,-2,-113,,,19,,,,,
,-62,18,649,,564,738,669,,1009,887,,,900,684,782,,,16,,,,,
,362,-18,3351,,2427,3327,3263,,3924,3861,,,3756,2704,3938,,,-15,,,,,
,-402,1,1291,,732,936,1147,,1391,1177,,,1289,609,1526,,,-2,,,,,
,-121,-45,220,,166,175,241,,108,139,,,-208,-47,177,,,-1,,,,,
,113,25,-724,,-600,-751,-672,,-701,-845,,,-805,-771,-820,,,-9,,,,,
,146,3,-3474,,-2413,-3363,-3356,,-3650,-3905,,,-3440,-2737,-3992,,,-8,,,,,
,97,-2,-1071,,-437,-864,-1137,,-1078,-1173,,,-1080,-585,-1521,,,21,,,,,
,-349,-33,-46,,155,48,75,,-112,-28,,,-149,33,-192,,,3,,,,,
,145,38,867,,804,964,905,,805,936,,,691,714,792,,,-18,,,,,
,-125,-40,3423,,2579,3477,3416,,3929,3962,,,3590,2688,4036,,,,,,,,
,3,-3,1003,,427,809,1089,,1334,1128,,,1357,671,1577,,,9,,,,,
,80,1,19,,-110,-127,2,,9,-36,,,188,20,153,,,-9,,,,,
,-140,37,-884,,-673,-950,-844,,-1070,-977,,,-840,-646,-762,,,3,,,,,
,18,4,-3516,,-2620,-3353,-3333,,-4022,-3895,,,-3586,-2628,-3817,,,2,,,,,
,130,-40,-1055,,-759,-912,-1145,,-1338,-1125,,,-1255,-644,-1423,,,7,,,,,
,-108,1,-574,,-416,-282,-376,,-231,-118,,,-169,-67,-170,,,6,,,,,
,-86,-7,321,,452,651,563,,741,832,,,685,622,672,,,-5,,,,,
,84,8,4425,,3039,3742,3763,,4033,3970,,,3741,2672,3674,,,-4,,,,,
,329,34,1870,,945,1219,1472,,1452,1234,,,1326,623,1416,,,-3,,,,,
,-381,-36,-107,,-65,41,57,,122,99,,,4,19,241,,,6,,,,,
,109,-19,-963,,-736,-836,-759,,-799,-882,,,-988,-770,-741,,,1,,,,,
,-149,-1,-3125,,-2423,-3377,-3257,,-3749,-3913,,,-3562,-2752,-3875,,,-5,,,,,
,408,20,-1026,,-529,-912,-1137,,-1837,-1160,,,-1393,-575,-1396,,,5,,,,,
,-361,-18,-389,,-78,-94,-254,,-33,-29,,,-72,17,-282,,,-3,,,,,
,162,20,1336,,614,922,817,,1008,909,,,950,685,806,,,-11,,,,,
,8482,-1,3666,,2620,3471,3371,,4049,3870,,,3658,2639,3939,,,15,,,,,
,-3733,-19,682,,469,738,983,,1289,1071,,,1321,687,1653,,,4,,,,,
,-3914,,124,,120,47,186,,62,58,,,198,63,188,,,-12,,,,,
,-793,1,-697,,-548,-800,-702,,-839,-861,,,-830,-694,-814,,,-13,,,,,
,949,,-3713,,-2649,-3595,-3613,,-3858,-3955,,,-3479,-2682,-3935,,,12,,,,,
,-1019,-7,-1473,,-756,-1179,-1450,,-1234,-1221,,,-1192,-607,-1435,,,8,,,,,
,-184,5,23,,-80,-131,-185,,-161,-64,,,-131,-5,-239,,,3,,,,,
,190,,771,,599,772,719,,630,875,,,738,780,859,,,1,,,,,
,72,7,3557,,2578,3464,3393,,3940,3950,,,3611,2644,3864,,,-6,,,,,
,251,-17,1017,,557,902,1173,,1365,1151,,,1111,586,1619,,,-13,,,,,
,-333,8,-160,,-39,19,159,,60,74,,,122,22,374,,,6,,,,,
,-4,-8,-715,,-507,-756,-631,,-807,-883,,,-701,-758,-832,,,7,,,,,
,15,-1,-3350,,-2322,-3283,-3183,,-3853,-3875,,,-3629,-2680,-3904,,,2,,,,,
,-153,1,-1112,,-680,-867,-1035,,-1395,-1105,,,-1401,-616,-1414,,,-3,,,,,
,243,8,-72,,51,56,-25,,41,-25,,,-174,-39,-220,,,-1,,,,,
,-183,-29,807,,787,879,782,,1055,888,,,964,675,681,,,-10,,,,,
,33,26,3572,,2617,3434,3373,,3877,3929,,,3674,2735,3873,,,6,,,,,
,145,-6,1108,,515,943,1245,,1058,1171,,,1177,647,1487,,,1,,,,,
,-176,-2,70,,71,122,128,,191,65,,,188,8,187,,,8,,,,,
,195,-17,-711,,-669,-835,-782,,-710,-930,,,-685,-717,-834,,,2,,,,,
,-229,19,-3297,,-2468,-3367,-3247,,-4290,-3937,,,-3723,-2685,-3786,,,-9,,,,,
,-41,-19,-1232,,-654,-1000,-1144,,-1239,-1168,,,-1177,-527,-1392,,,3,,,,,
,319,-11,-26,,56,60,-23,,-136,-1,,,-196,21,-216,,,2,,,,,
,83,11,491,,625,849,610,,916,929,,,763,653,733,,,-9,,,,,
,-368,,3463,,2561,3437,3394,,3904,3914,,,3582,2591,3850,,,-2,,,,,
,152,-1,1136,,523,836,1075,,1359,1143,,,1387,593,1424,,,4,,,,,
,1261,1,34,,24,-72,42,,108,-10,,,233,24,201,,,,,,,,
,-1361,-2,-569,,-419,-675,-567,,-936,-872,,,-1115,-727,-646,,,-2,,,,,
,696,1,-3416,,-2463,-3351,-3390,,-3782,-3868,,,-3441,-2689,-3973,,,-9,,,,,
,-856,-10,-1206,,-679,-1005,-1241,,-1160,-1167,,,-1089,-610,-1548,,,5,,,,,
,1838,9,-230,,-129,-122,-165,,-59,-74,,,-127,4,-71,,,7,,,,,
,-1535,6,652,,699,756,640,,890,884,,,747,687,798,,,5,,,,,
,-149,-4,3333,,2468,3273,3164,,3787,3810,,,3716,2710,3705,,,-1,,,,,
,6,-11,1160,,579,937,1144,,1312,1162,,,1314,632,1516,,,-14,,,,,
,72,,101,,-58,-4,115,,58,10,,,233,68,297,,,12,,,,,
,-98,-1,-795,,-713,-869,-738,,-765,-972,,,-712,-710,-687,,,5,,,,,
,52,-21,-3393,,-2502,-3394,-3272,,-3932,-3943,,,-3621,-2659,-3936,,,1,,,,,
,-29,2,-1062,,-599,-935,-1111,,-1463,-1170,,,-1335,-621,-1685,,,7,,,,,
,87,,-48,,10,39,-103,,-57,8,,,-185,-90,-305,,,-4,,,,,
,-92,,802,,786,925,752,,1050,980,,,755,605,703,,,-12,,,,,
,-48,,3511,,2603,3489,3474,,3941,3955,,,3498,2574,3876,,,-6,,,,,
,190,-11,1084,,589,938,1250,,1178,1159,,,1176,627,1600,,,10,,,,,
,-233,13,176,,46,121,193,,-113,34,,,71,62,105,,,-2,,,,,
,68,-2,-656,,-552,-648,-532,,-848,-866,,,-904,-768,-813,,,-8,,,,,
,-34,-11,-3841,,-2731,-3545,-3526,,-3897,-3909,,,-3657,-2695,-3853,,,-1,,,,,
,124,11,-1508,,-872,-1172,-1330,,-1351,-1268,,,-1153,-551,-1379,,,-5,,,,,
,-194,-11,734,,272,222,410,,-114,-73,,,-81,18,-174,,,8,,,,,
,41,-1,1399,,1029,1157,1046,,1059,1013,,,840,684,656,,,22,,,,,
,189,11,3202,,2521,3462,3230,,4046,3954,,,3603,2591,3882,,,-8,,,,,
,72,-10,1138,,545,907,1205,,971,1143,,,1226,604,1593,,,-15,,,,,
,-293,1,282,,83,9,90,,323,15,,,238,24,17,,,3,,,,,
,863,10,-884,,-719,-1001,-910,,-892,-1013,,,-724,-618,-675,,,2,,,,,
,1155,-6,-3704,,-2625,-3585,-3505,,-4014,-3959,,,-3590,-2621,-3863,,,-2,,,,,
,-1463,-7,-1182,,-674,-959,-1183,,-1258,-1123,,,-1293,-594,-1495,,,8,,,,,
,163,-19,-95,,-69,-53,-99,,-40,-20,,,-167,-56,-37,,,-10,,,,,
,-653,-1,843,,685,798,754,,910,916,,,815,661,812,,,-2,,,,,
,-63,,3375,,2552,3340,3332,,3848,3921,,,3651,2725,3830,,,5,,,,,
,396,23,1054,,672,937,1083,,1304,1209,,,1347,668,1458,,,-1,,,,,
,-266,-20,178,,62,90,109,,131,52,,,102,-34,218,,,-4,,,,,
,112,19,-760,,-597,-769,-665,,-780,-931,,,-722,-757,-836,,,-4,,,,,
,-344,-20,-3618,,-2650,-3530,-3412,,-3979,-3998,,,-3588,-2698,-4002,,,9,,,,,
,226,,-1349,,-762,-1149,-1264,,-1554,-1284,,,-1315,-524,-1445,,,4,,,,,
,63,1,-157,,-115,-97,-155,,-205,-84,,,-123,12,-163,,,,,,,,
,-134,-2,885,,796,881,730,,1072,959,,,926,685,753,,,-9,,,,,
,229,1,3559,,2737,3462,3290,,4142,3975,,,3790,2766,4014,,,14,,,,,
,-247,-10,1157,,553,903,1124,,1357,1163,,,1263,575,1480,,,-10,,,,,
,204,1,17,,-6,10,136,,-10,,,,94,-38,69,,,,,,,,
,-311,-1,-759,,-522,-703,-545,,-954,-834,,,-1064,-709,-627,,,5,,,,,
,72,,-3237,,-2336,-3107,-3037,,-3811,-3746,,,-3781,-2711,-3911,,,2,,,,,
,3946,,-1079,,-632,-873,-1072,,-1307,-1170,,,-1162,-607,-1622,,,3,,,,,
,-3477,11,-132,,-123,-107,-92,,-223,-102,,,-216,-90,-70,,,-4,,,,,
,-267,-29,734,,721,830,800,,837,906,,,775,667,761,,,-13,,,,,
,-272,17,3553,,2671,3558,3466,,4018,3995,,,3641,2657,3758,,,10,,,,,
,-3,1,1112,,598,981,1098,,1675,1186,,,1400,593,1480,,,16,,,,,
,26,-1,331,,116,128,266,,-155,44,,,130,65,381,,,-6,,,,,
,504,-1,-830,,-740,-900,-677,,-999,-1009,,,-725,-664,-661,,,-13,,,,,
,-315,3,-3507,,-2485,-3447,-3311,,-3888,-3941,,,-3510,-2592,-3784,,,8,,,,,
,-105,-21,-1041,,-628,-891,-1056,,-1384,-1121,,,-1415,-620,-1328,,,-5,,,,,
,277,-12,-327,,-175,-96,-205,,-202,-91,,,-34,63,45,,,,,,,,
,-183,12,655,,616,719,496,,944,856,,,1081,743,638,,,7,,,,,
,-148,-12,3725,,2659,3499,3371,,3943,3985,,,3381,2557,3760,,,7,,,,,
,1616,3,1158,,665,991,1268,,1219,1187,,,1119,557,1382,,,-9,,,,,
,-1492,20,122,,138,60,69,,226,107,,,216,23,15,,,5,,,,,
,-268,-21,-906,,-768,-953,-852,,-862,-931,,,-693,-714,-823,,,-12,,,,,
,137,10,-3626,,-2653,-3507,-3324,,-3846,-3971,,,-3693,-2737,-3882,,,-1,,,,,
,17,-11,-1121,,-589,-1052,-1213,,-1182,-1246,,,-1228,-643,-1478,,,4,,,,,
,126,11,-127,,78,-89,-170,,-106,-111,,,-81,42,-91,,,1,,,,,
,-21,2,800,,631,910,750,,785,967,,,781,755,954,,,5,,,,,
,-52,-13,3412,,2457,3424,3317,,3828,3942,,,3667,2701,4051,,,-5,,,,,
,-110,-1,1000,,623,936,1172,,1407,1150,,,1430,622,1508,,,-9,,,,,
,200,1,127,,76,63,135,,180,53,,,182,-55,-16,,,8,,,,,
,11,,-746,,-539,-829,-727,,-954,-928,,,-871,-692,-892,,,-2,,,,,
,-206,-19,-3546,,-2656,-3438,-3354,,-3965,-3897,,,-3511,-2584,-3936,,,9,,,,,
,31,19,-1339,,-879,-1048,-1254,,-1335,-1211,,,-1137,-575,-1540,,,-11,,,,,
,-30,-2,-138,,-122,-122,-171,,-106,-88,,,-205,-24,-153,,,3,,,,,
,175,3,873,,708,809,672,,895,894,,,761,687,821,,,10,,,,,
,-208,-21,3548,,2657,3426,3322,,3874,3884,,,3605,2670,3777,,,-1,,,,,
,-40,,1128,,662,1010,1212,,1280,1201,,,1173,621,1511,,,-6,,,,,
,102,-11,155,,89,168,245,,141,107,,,136,2,182,,,5,,,,,
,202,10,-804,,-675,-812,-624,,-860,-933,,,-835,-761,-754,,,-5,,,,,
,-138,1,-3522,,-2568,-3445,-3268,,-3924,-3992,,,-3565,-2689,-3791,,,-1,,,,,
,485,-14,-1008,,-455,-791,-982,,-1329,-1142,,,-1232,-558,-1481,,,-2,,,,,
,350,14,178,,138,185,78,,-98,49,,,-217,-38,-219,,,1,,,,,
,-522,21,970,,773,945,777,,1007,1001,,,893,675,830,,,-3,,,,,
,-221,-31,3455,,2567,3442,3382,,4167,3953,,,3449,2546,3907,,,-6,,,,,
,-152,-1,1193,,625,888,1099,,979,1141,,,1235,653,1592,,,13,,,,,
,33,,-64,,25,-56,-32,,-176,28,,,296,109,115,,,-2,,,,,
,69,9,-840,,-694,-872,-832,,-767,-913,,,-860,-678,-785,,,-6,,,,,
,-195,3,-3448,,-2529,-3379,-3300,,-3745,-3894,,,-3736,-2726,-3870,,,6,,,,,
,115,-1,-1232,,-743,-1051,-1256,,-1179,-1189,,,-1193,-628,-1645,,,2,,,,,
,6,-10,-226,,-91,-163,-239,,-89,-162,,,9,24,-251,,,-10,,,,,
,-124,,664,,649,767,678,,694,830,,,885,845,901,,,12,,,,,
,-6,-1,3452,,2509,3458,3382,,3835,3931,,,3639,2730,3925,,,2,,,,,
,57,-1,948,,633,905,1100,,1430,1137,,,1334,664,1610,,,-5,,,,,
,-144,-19,128,,59,-72,-5,,268,13,,,243,-33,116,,,3,,,,,
,314,,-581,,-623,-862,-772,,-858,-924,,,-774,-711,-732,,,-4,,,,,
,-232,21,-3528,,-2535,-3440,-3275,,-4079,-3895,,,-3697,-2634,-3791,,,4,,,,,
,465,-19,-1177,,-681,-940,-1146,,-1361,-1086,,,-1290,-656,-1610,,,8,,,,,
,-219,-13,-105,,-134,-52,-192,,-69,-33,,,-219,-122,-252,,,-10,,,,,
,-234,-2,736,,657,866,674,,970,871,,,772,570,679,,,-5,,,,,
,-40,,3528,,2592,3411,3278,,3875,3860,,,3728,2720,3935,,,6,,,,,
,156,2,974,,526,815,1005,,1137,1089,,,1330,721,1500,,,1,,,,,
,-39,1,-282,,-143,-62,-108,,42,74,,,47,38,251,,,-2,,,,,
,-53,,-1675,,-952,-1033,-1059,,-910,-898,,,-928,-755,-845,,,-1,,,,,
,15,,-3253,,-2303,-3228,-3109,,-3744,-3873,,,-3644,-2748,-3970,,,-4,,,,,
,323,10,98,,98,-435,-469,,-965,-1109,,,-1077,-610,-1521,,,-3,,,,,
,-356,-10,302,,269,226,187,,-69,-17,,,-105,15,-232,,,-5,,,,,
,881,,524,,506,840,629,,807,972,,,842,727,837,,,,,,,,
,-858,11,3050,,2386,3343,3125,,3897,3965,,,3664,2723,3990,,,,,,,,
,552,-10,1129,,578,889,1145,,1347,1155,,,1243,600,1640,,,-4,,,,,
,-377,-16,258,,45,24,228,,23,26,,,116,65,362,,,19,,,,,
,-113,15,-1139,,-782,-1005,-891,,-1105,-995,,,-858,-666,-844,,,-4,,,,,
,3168,-2,-3504,,-2497,-3381,-3227,,-3825,-3917,,,-3603,-2731,-3902,,,-2,,,,,
,-2855,-5,-1006,,-585,-917,-1131,,-1171,-1175,,,-1110,-599,-1447,,,-2,,,,,
,-267,-12,-219,,-38,-74,-200,,-51,-100,,,-106,21,-27,,,7,,,,,
,-109,18,639,,746,831,645,,872,880,,,794,707,810,,,-5,,,,,
,1679,-30,3711,,2780,3562,3390,,3928,4003,,,3618,2682,3669,,,-5,,,,,
,-1752,32,1211,,664,990,1177,,1322,1232,,,1282,718,1620,,,1,,,,,
,-34,-35,95,,43,19,116,,237,25,,,242,-32,58,,,-7,,,,,
,107,14,-729,,-633,-799,-648,,-782,-948,,,-763,-826,-969,,,10,,,,,
,382,1,-3694,,-2572,-3510,-3421,,-3738,-3955,,,-3591,-2657,-3900,,,-7,,,,,
,-418,-1,-962,,-627,-860,-986,,-1690,-1057,,,-1442,-583,-1467,,,-4,,,,,
,178,1,-41,,-40,-5,-88,,-200,9,,,-288,-92,-153,,,1,,,,,
,157,-1,557,,531,691,560,,1025,865,,,998,665,705,,,13,,,,,
,-384,-11,3368,,2421,3331,3266,,3837,3835,,,3560,2675,3931,,,9,,,,,
,23,-1,1211,,647,953,1205,,1151,1117,,,1048,664,1571,,,2,,,,,
,3,1,9,,52,43,117,,-50,51,,,124,96,209,,,-12,,,,,
,454,10,-547,,-552,-738,-658,,-814,-898,,,-658,-714,-736,,,-4,,,,,
,-346,-2,-3295,,-2417,-3330,-3210,,-3737,-3927,,,-3494,-2664,-3807,,,-3,,,,,
,-190,-28,-1175,,-651,-963,-1110,,-1254,-1211,,,-1295,-664,-1417,,,15,,,,,
,115,18,-68,,53,-7,-38,,-27,14,,,-140,-51,-211,,,-4,,,,,
,-35,2,820,,782,886,767,,891,992,,,767,663,566,,,7,,,,,
,18,-20,3559,,2550,3531,3397,,3983,4010,,,3529,2556,3618,,,-23,,,,,
,921,19,854,,445,848,1103,,1313,1168,,,1194,624,1560,,,2,,,,,
,-799,-31,-171,,-261,-100,41,,-83,34,,,129,69,358,,,8,,,,,
,256,16,-945,,-824,-980,-894,,-1109,-1024,,,-823,-613,-679,,,9,,,,,
,-264,-13,-3710,,-2635,-3578,-3608,,-4059,-4007,,,-3587,-2601,-3960,,,-4,,,,,
,68,-5,-1196,,-657,-975,-1308,,-1289,-1181,,,-1418,-650,-1569,,,-6,,,,,
,1514,4,-151,,-104,-104,-186,,-28,-20,,,-200,27,-17,,,9,,,,,
,-1380,18,482,,431,689,605,,880,839,,,894,739,906,,,,,,,,
,-293,-20,3333,,2548,3368,3326,,3797,3818,,,3645,2746,4008,,,3,,,,,
,-33,1,1023,,512,765,1102,,1141,1125,,,1355,743,1616,,,4,,,,,
,-27,,56,,19,-7,79,,222,41,,,189,30,154,,,-19,,,,,
,-191,8,-706,,-651,-812,-658,,-747,-973,,,-614,-702,-770,,,-17,,,,,
,149,-7,-3481,,-2471,-3376,-3240,,-3743,-3942,,,-3384,-2653,-3799,,,24,,,,,
,1671,,-1067,,-527,-922,-1131,,-1247,-1208,,,-1178,-603,-1534,,,-5,,,,,
,-1487,3,110,,80,68,3,,-205,-34,,,-269,-19,-289,,,-8,,,,,
,-183,-21,845,,730,912,768,,927,959,,,871,712,818,,,4,,,,,
,33,-3,3545,,2544,3434,3329,,3915,3927,,,3703,2716,4031,,,2,,,,,
,-66,22,1129,,599,953,1263,,1249,1180,,,1128,559,1569,,,5,,,,,
,-67,-24,129,,32,58,218,,-40,61,,,31,23,133,,,-8,,,,,
,161,2,-913,,-702,-866,-754,,-984,-918,,,-822,-729,-904,,,,,,,,
,-174,1,-3400,,-2450,-3302,-3301,,-3747,-3861,,,-3575,-2722,-4003,,,7,,,,,
,132,19,-1071,,-577,-861,-1110,,-1206,-1142,,,-1278,-640,-1435,,,5,,,,,
,402,-32,-175,,2,-28,-166,,-77,-33,,,-149,-37,-194,,,3,,,,,
,-490,1,541,,623,778,593,,808,968,,,775,775,706,,,-8,,,,,
,75,-1,3669,,2679,3579,3588,,3868,3953,,,3499,2637,3901,,,-18,,,,,
,158,12,2012,,991,1321,1669,,1419,1307,,,1065,462,1632,,,1,,,,,
,-202,-1,137,,128,86,71,,285,51,,,134,-118,88,,,10,,,,,
,4,-9,-841,,-611,-825,-742,,-737,-898,,,-694,-731,-818,,,7,,,,,
,348,18,-3168,,-2307,-3262,-3134,,-3925,-3882,,,-3628,-2637,-3937,,,1,,,,,
,-430,-7,-1238,,-642,-949,-1224,,-1402,-1182,,,-1298,-590,-1418,,,-6,,,,,
,146,-13,-290,,-167,-62,-244,,-133,-33,,,-191,-86,-265,,,-3,,,,,
,-88,1,693,,571,782,624,,924,898,,,836,675,761,,,-2,,,,,
,-24,12,3273,,2395,3244,3235,,3941,3813,,,3766,2678,3928,,,3,,,,,
,418,-11,994,,496,782,1092,,1132,1114,,,1269,719,1550,,,9,,,,,
,-301,,-92,,-141,-100,-77,,-32,26,,,85,71,153,,,-4,,,,,
,3004,,-1007,,-838,-1055,-1001,,-886,-1004,,,-730,-652,-796,,,1,,,,,
,-2515,-13,-3622,,-2590,-3579,-3465,,-3773,-3980,,,-3487,-2682,-3881,,,5,,,,,
,-300,15,-1006,,-616,-981,-1159,,-1331,-1207,,,-1312,-630,-1471,,,2,,,,,
,-372,-22,-187,,-111,-140,-280,,-131,-107,,,-42,67,-255,,,8,,,,,
,163,20,645,,720,922,690,,892,974,,,754,735,822,,,-7,,,,,
,77,,3772,,2690,3570,3530,,3590,3982,,,3596,2675,4016,,,,,,,,
,-139,-2,1144,,573,858,1209,,1513,1198,,,1384,598,1500,,,4,,,,,
,142,-18,-45,,-93,-72,27,,137,6,,,155,9,228,,,-3,,,,,
,-93,-12,-866,,-648,-851,-656,,-934,-949,,,-929,-730,-789,,,-3,,,,,
,-12,12,-3572,,-2540,-3394,-3242,,-3960,-3851,,,-3605,-2705,-3871,,,-8,,,,,
,-90,-11,-1060,,-662,-931,-1088,,-1264,-1144,,,-1205,-628,-1270,,,1,,,,,
,-43,11,97,,13,5,-103,,-30,-63,,,-141,-50,-230,,,2,,,,,
,-5,-10,810,,756,870,730,,932,918,,,879,713,717,,,-3,,,,,
,524,-1,3496,,2661,3514,3440,,3827,3913,,,3625,2747,3940,,,13,,,,,
,-255,11,1117,,642,981,1181,,1286,1208,,,1160,603,1454,,,-8,,,,,
,269,-11,-51,,-23,59,118,,156,88,,,59,-45,204,,,3,,,,,
,-378,,-534,,-568,-744,-584,,-805,-920,,,-744,-715,-805,,,2,,,,,
,-153,,-3374,,-2557,-3364,-3230,,-3919,-3909,,,-3505,-2667,-3878,,,-6,,,,,
,211,5,-1006,,-532,-858,-1045,,-1395,-1148,,,-1337,-543,-1415,,,,,,,,
,430,6,-61,,1,20,20,,-121,3,,,-248,-58,-255,,,1,,,,,
,-343,-17,726,,597,846,763,,866,925,,,821,690,817,,,15,,,,,
,-73,-4,3374,,2473,3403,3375,,3986,3893,,,3706,2666,3944,,,5,,,,,
,1661,-1,1019,,498,817,1148,,1168,1041,,,1244,652,1615,,,-10,,,,,
,-1660,3,22,,74,5,-6,,-34,22,,,76,28,106,,,-11,,,,,
,-63,-4,-843,,-568,-711,-730,,-759,-839,,,-792,-768,-983,,,-6,,,,,
,381,-10,-3377,,-2465,-3284,-3254,,-3793,-3851,,,-3801,-2725,-3857,,,-3,,,,,
,1342,13,-1059,,-627,-931,-1132,,-1249,-1196,,,-1348,-606,-1491,,,10,,,,,
,-1275,10,-176,,-95,-107,-154,,-113,-106,,,-97,3,-207,,,12,,,,,
,-39,-13,605,,622,699,561,,759,880,,,890,796,676,,,-5,,,,,
,-352,-12,3403,,2523,3341,3175,,3888,3914,,,3737,2724,3890,,,-11,,,,,
,127,-2,983,,555,876,1102,,1329,1157,,,1309,596,1573,,,-3,,,,,
,-109,14,22,,-58,-57,25,,110,-8,,,270,21,287,,,,,,,,
,-181,-17,-808,,-802,-947,-750,,-957,-1018,,,-764,-701,-735,,,7,,,,,
,172,,-3452,,-2522,-3374,-3267,,-4049,-3934,,,-3803,-2661,-3832,,,6,,,,,
,99,18,-1187,,-631,-904,-1108,,-1367,-1119,,,-1282,-605,-1327,,,-6,,,,,
,4,-1,36,,40,43,-108,,63,14,,,30,-57,-195,,,-2,,,,,
,82,-2,797,,725,859,703,,1110,953,,,916,653,759,,,-3,,,,,
,15,-16,3434,,2576,3421,3380,,3942,3925,,,3531,2675,3882,,,1,,,,,
,316,16,1119,,635,930,1205,,1104,1157,,,1063,627,1449,,,11,,,,,
,-56,2,182,,97,119,140,,137,108,,,45,-55,163,,,-12,,,,,
,-385,-17,-824,,-679,-787,-715,,-806,-878,,,-837,-760,-726,,,3,,,,,
,-293,-26,-3481,,-2568,-3360,-3195,,-3875,-3923,,,-3565,-2721,-4044,,,-5,,,,,
,1862,26,-1124,,-631,-927,-985,,-1205,-1176,,,-1332,-649,-1505,,,-1,,,,,
,-1359,-24,17,,113,88,58,,-317,-6,,,-262,8,-136,,,11,,,,,
,6705,16,762,,666,921,810,,545,936,,,803,761,848,,,-10,,,,,
,-1403,9,3395,,2390,3348,3201,,4083,3857,,,3731,2685,3887,,,-5,,,,,
,-1311,-28,1196,,444,873,1144,,1320,1072,,,1207,568,1492,,,15,,,,,
,199,31,48,,30,-34,37,,101,-24,,,238,85,155,,,-5,,,,,
,-2743,-34,-894,,-633,-883,-740,,-943,-940,,,-863,-624,-872,,,-10,,,,,
,-1847,31,-3500,,-2502,-3415,-3428,,-3864,-3892,,,-3642,-2701,-4023,,,1,,,,,
,161,-2,-1104,,-565,-957,-1252,,-1139,-1124,,,-1252,-675,-1588,,,7,,,,,
,-136,-45,-101,,-38,-101,-154,,-55,-87,,,-178,-22,-117,,,9,,,,,
,-181,4,599,,620,757,641,,832,879,,,790,758,754,,,-17,,,,,
,180,33,3417,,2440,3420,3333,,3687,3986,,,3631,2783,3814,,,11,,,,,
,-28,-35,1103,,588,884,1037,,1273,1184,,,1277,636,1435,,,-6,,,,,
,41,7,104,,48,42,30,,215,39,,,200,-17,157,,,1,,,,,
,198,11,-925,,-787,-906,-839,,-922,-979,,,-679,-672,-690,,,6,,,,,
,-11,-20,-3348,,-2464,-3364,-3265,,-3981,-3930,,,-3689,-2703,-4019,,,10,,,,,
,-202,-1,-1074,,-488,-838,-1051,,-1334,-1094,,,-1404,-662,-1612,,,-4,,,,,
,-105,17,-296,,-66,-53,-192,,-53,-22,,,-178,-32,-49,,,-7,,,,,
,388,-26,838,,757,868,707,,1020,950,,,823,626,835,,,-6,,,,,
,-108,-6,3454,,2433,3368,3300,,4042,3925,,,3884,2705,3725,,,20,,,,,
,137,5,853,,528,855,1168,,1243,1082,,,1193,665,1615,,,-12,,,,,
,65,,-7,,96,22,77,,8,8,,,142,58,237,,,9,,,,,
,-377,10,-670,,-604,-754,-605,,-826,-827,,,-823,-763,-612,,,-6,,,,,
,99,-1,-3431,,-2523,-3361,-3158,,-3844,-3883,,,-3724,-2697,-3656,,,,,,,,
,59,6,-971,,-587,-838,-970,,-1290,-1159,,,-1231,-677,-1459,,,-13,,,,,
,837,-28,130,,34,19,-21,,-98,-97,,,-86,-9,-160,,,-4,,,,,
,2217,14,872,,800,969,867,,888,959,,,704,703,798,,,8,,,,,
,-2782,2,3691,,2716,3633,3487,,3590,3976,,,3501,2630,3848,,,-5,,,,,
,239,5,1012,,519,817,1095,,1380,1117,,,1202,580,1405,,,-1,,,,,
,-595,-30,-155,,-151,-226,-166,,155,-59,,,298,58,46,,,1,,,,,
,32,21,-1065,,-842,-1084,-1001,,-922,-1065,,,-693,-607,-884,,,2,,,,,
,-157,-16,-3684,,-2578,-3461,-3392,,-3956,-3908,,,-3691,-2667,-4057,,,14,,,,,
,136,-1,-1055,,-599,-891,-1121,,-1203,-1157,,,-1323,-611,-1476,,,-3,,,,,
,-159,16,-86,,-139,-105,-199,,-11,-78,,,-53,60,-54,,,-11,,,,,
,16,-18,800,,604,835,757,,858,903,,,724,655,691,,,7,,,,,
,-82,4,3306,,2541,3341,3329,,3770,3868,,,3536,2680,3776,,,1,,,,,
,95,-17,1006,,613,951,1186,,1212,1229,,,1195,639,1502,,,-1,,,,,
,109,12,360,,164,264,314,,162,170,,,136,-7,219,,,11,,,,,
,97,-16,-569,,-540,-690,-607,,-816,-890,,,-809,-770,-801,,,5,,,,,
,-111,7,-3603,,-2599,-3461,-3380,,-3909,-3952,,,-3452,-2682,-3823,,,-9,,,,,
,646,,-1070,,-518,-934,-1132,,-1323,-1152,,,-1171,-605,-1587,,,2,,,,,
,-745,,90,,139,79,-50,,-81,1,,,-158,-94,-312,,,-8,,,,,
,184,8,842,,671,879,614,,905,916,,,739,640,840,,,5,,,,,
,-295,-8,3419,,2457,3333,3214,,3981,3858,,,3732,2691,3880,,,-17,,,,,
,532,10,1041,,645,877,1045,,1610,1154,,,1440,624,1347,,,16,,,,,
,-560,-1,91,,87,47,92,,-65,47,,,90,54,294,,,-4,,,,,
,110,-31,-566,,-575,-665,-614,,-1223,-866,,,-901,-637,-649,,,5,,,,,
,13,,-3645,,-2618,-3390,-3364,,-3675,-3850,,,-3500,-2691,-3827,,,-8,,,,,
,-43,2,-1205,,-656,-974,-1162,,-1169,-1149,,,-1332,-762,-1556,,,1,,,,,
,283,20,88,,99,27,7,,-25,-37,,,-318,-117,-194,,,-1,,,,,
,-396,-2,806,,699,801,720,,711,904,,,818,805,769,,,4,,,,,
,330,1,3447,,2497,3384,3348,,3773,3904,,,3507,2688,3828,,,-3,,,,,
,58,-20,963,,501,856,1081,,1325,1179,,,1160,607,1493,,,2,,,,,
,-244,-11,-376,,-242,-202,-158,,78,14,,,198,22,48,,,-5,,,,,
,664,-3,-1569,,-1099,-1163,-1166,,-1068,-1045,,,-762,-693,-921,,,9,,,,,
,-501,17,-3345,,-2410,-3440,-3289,,-3854,-3965,,,-3601,-2638,-3938,,,-11,,,,,
,-39,-16,-9,,-351,-666,-656,,-1161,-1105,,,-1217,-627,-1448,,,1,,,,,
,-8,13,-333,,-97,-129,-229,,-75,-56,,,-167,-64,-125,,,-4,,,,,
,7,7,488,,601,742,627,,1179,896,,,865,682,769,,,11,,,,,
,-65,-8,3460,,2436,3342,3313,,3710,3835,,,3611,2695,3980,,,-5,,,,,
,-29,4,664,,476,736,992,,844,1070,,,1194,703,1634,,,,,,,,
,1512,-1,419,,309,262,370,,291,120,,,94,-27,263,,,,,,,,
,-1491,-18,-333,,-393,-557,-450,,-684,-810,,,-722,-674,-772,,,4,,,,,
,-152,-6,-3793,,-2695,-3526,-3393,,-3927,-3926,,,-3481,-2636,-3796,,,-2,,,,,
,95,-8,-1400,,-888,-1090,-1189,,-1429,-1223,,,-1332,-673,-1341,,,6,,,,,
,-130,-1,-255,,-51,-78,-151,,-198,-112,,,-54,64,-283,,,-4,,,,,
,738,2,850,,829,993,801,,950,989,,,898,768,755,,,4,,,,,
,-634,19,3760,,2705,3671,3588,,3990,4028,,,3499,2627,3995,,,-3,,,,,
,-45,-19,1526,,849,1117,1308,,1537,1246,,,1173,453,1358,,,7,,,,,
,168,-1,141,,125,-17,-5,,360,66,,,301,-52,137,,,-5,,,,,
,379,,-942,,-671,-965,-942,,-856,-919,,,-692,-673,-855,,,2,,,,,
,-605,-1,-3640,,-2653,-3523,-3572,,-3903,-3925,,,-3536,-2649,-3998,,,3,,,,,
,70,1,-1232,,-606,-953,-1230,,-1149,-1154,,,-1273,-624,-1473,,,-5,,,,,
,116,-2,-211,,-78,-116,-248,,59,-114,,,-115,-16,-202,,,-8,,,,,
,187,2,915,,557,838,718,,735,832,,,858,675,645,,,-3,,,,,
,-162,,3521,,2585,3461,3373,,3451,3900,,,3502,2671,3747,,,6,,,,,
,-205,,910,,519,860,1079,,1205,1199,,,1027,620,1505,,,-2,,,,,
,-18,1,97,,-26,95,235,,56,142,,,-228,-89,203,,,4,,,,,
,119,-1,-918,,-832,-996,-804,,-914,-995,,,-694,-703,-721,,,-6,,,,,
,202,-1,-3531,,-2596,-3507,-3332,,-3994,-3979,,,-3489,-2653,-3812,,,2,,,,,
,-170,1,-1026,,-472,-936,-1163,,-1290,-1166,,,-1236,-544,-1608,,,15,,,,,
,337,-19,-17,,-58,-21,-168,,-120,1,,,-134,-11,-240,,,-13,,,,,
,-571,,769,,721,950,757,,1123,982,,,871,686,711,,,7,,,,,
,75,17,3570,,2553,3430,3396,,3970,3917,,,3530,2658,3901,,,1,,,,,
,10,-16,851,,380,686,1013,,1183,1045,,,1291,682,1622,,,-13,,,,,
,48,-1,38,,11,-84,-93,,16,-49,,,211,153,257,,,3,,,,,
,548,10,-836,,-645,-877,-851,,-727,-943,,,-769,-673,-760,,,,,,,,
,-299,-17,-3594,,-2826,-3590,-3457,,-3862,-3936,,,-3379,-2620,-3914,,,2,,,,,
,-107,-1,-1048,,-651,-929,-1055,,-1625,-1126,,,-1317,-631,-1315,,,-8,,,,,
,-63,8,-183,,-47,-79,-92,,57,-91,,,-203,-58,-58,,,-9,,,,,
,-72,-8,885,,900,966,835,,835,903,,,775,677,672,,,12,,,,,
,135,-18,3558,,2768,3641,3494,,3990,4018,,,3619,2657,3883,,,9,,,,,
,133,21,1097,,444,875,1055,,1327,1139,,,1325,639,1642,,,-1,,,,,
,26,-18,31,,-227,-94,83,,-50,-25,,,10,-20,289,,,-1,,,,,
,-267,23,-905,,-735,-908,-765,,-983,-979,,,-785,-690,-829,,,-1,,,,,
,-124,1,-3410,,-2343,-3364,-3298,,-3929,-3868,,,-3744,-2695,-3978,,,-1,,,,,
,1116,-9,-1159,,-698,-968,-1224,,-1352,-1146,,,-1369,-631,-1479,,,-1,,,,,
,-543,2,-313,,-186,-185,-309,,-27,-98,,,32,42,-180,,,9,,,,,
,-8,-2,871,,745,857,650,,1009,909,,,787,625,649,,,-5,,,,,
,-519,-33,3525,,2530,3393,3346,,3908,3913,,,3519,2648,3889,,,-15,,,,,
,-49,3,1096,,676,983,1154,,1339,1204,,,1202,634,1394,,,11,,,,,
,194,-6,238,,44,149,155,,-327,83,,,-47,3,183,,,3,,,,,
,197,36,-984,,-746,-873,-826,,-702,-930,,,-788,-767,-849,,,-8,,,,,
,-200,1,-3550,,-2583,-3442,-3296,,-3738,-3880,,,-3582,-2743,-3950,,,,,,,,
,3036,-36,-1020,,-516,-846,-1012,,-1261,-1107,,,-1410,-696,-1628,,,5,,,,,
,-2531,,-115,,72,42,-103,,-183,-41,,,-198,25,-315,,,-2,,,,,
,-483,-4,622,,755,919,595,,897,951,,,859,723,680,,,6,,,,,
,-83,4,2952,,2188,3243,3125,,3679,3923,,,3498,2702,4115,,,-3,,,,,
,3023,-15,1684,,806,1170,1558,,1455,1216,,,1276,558,1485,,,9,,,,,
,-3085,5,1149,,463,355,559,,201,87,,,265,13,81,,,-11,,,,,
,-9,10,-895,,-667,-899,-828,,-1031,-896,,,-746,-610,-794,,,6,,,,,
,-67,-13,-4043,,-2731,-3549,-3636,,-3865,-3890,,,-3668,-2693,-3865,,,3,,,,,
,53,1,-1303,,-602,-950,-1212,,-1158,-1181,,,-1217,-610,-1386,,,-9,,,,,
,-107,-11,37,,-178,-80,-86,,-8,-89,,,-15,5,-118,,,-5,,,,,
,43,9,749,,695,728,657,,885,891,,,864,753,804,,,5,,,,,
,228,14,3376,,2545,3353,3215,,3919,3873,,,3666,2722,3903,,,-6,,,,,
,10,-10,1122,,558,1000,1289,,1377,1151,,,1198,614,1664,,,10,,,,,
,-25,-21,96,,-25,69,287,,-246,-18,,,40,13,405,,,-3,,,,,
,-193,,-554,,-662,-837,-703,,-746,-975,,,-768,-765,-888,,,8,,,,,
,-176,2,-3575,,-2517,-3415,-3336,,-3899,-3905,,,-3657,-2675,-3937,,,-11,,,,,
,348,15,-1218,,-548,-895,-1133,,-1414,-1100,,,-1428,-596,-1471,,,12,,,,,
,-231,-17,58,,12,95,-40,,26,78,,,-212,-73,-350,,,5,,,,,
,781,22,727,,492,794,636,,867,890,,,947,703,850,,,-15,,,,,
,-644,-20,3496,,2492,3366,3319,,3864,3847,,,3511,2592,3993,,,4,,,,,
,241,,1086,,558,758,1065,,1233,1080,,,1174,653,1486,,,6,,,,,
,-318,4,153,,168,97,77,,143,104,,,168,60,-37,,,-6,,,,,
,-75,-5,-722,,-635,-758,-775,,-777,-846,,,-760,-734,-891,,,-4,,,,,
,181,-11,-3458,,-2526,-3392,-3363,,-3793,-3866,,,-3630,-2734,-3876,,,1,,,,,
,-70,-2,-971,,-607,-934,-1144,,-1229,-1180,,,-1309,-644,-1356,,,-4,,,,,
,148,16,32,,51,-32,-68,,-176,-73,,,-109,39,-211,,,7,,,,,
,656,,825,,851,984,825,,867,999,,,882,756,512,,,5,,,,,
,-800,-6,3476,,2677,3456,3243,,4196,3940,,,3709,2637,3723,,,-2,,,,,
,-117,5,892,,508,780,935,,1266,1110,,,1338,635,1531,,,-2,,,,,
,32,-16,272,,-162,11,171,,-314,14,,,142,19,159,,,-13,,,,,
,93,13,-872,,-791,-964,-757,,-939,-989,,,-808,-663,-765,,,13,,,,,
,271,-1,-3600,,-2575,-3489,-3349,,-4023,-3958,,,-3787,-2633,-3755,,,7,,,,,
,-437,-29,-1215,,-669,-917,-1177,,-1197,-1145,,,-1218,-644,-1532,,,-19,,,,,
,242,-1,-3,,46,58,-128,,111,-48,,,-38,-103,-351,,,-1,,,,,
,-204,6,921,,796,991,826,,995,938,,,640,676,886,,,5,,,,,
,98,-8,3462,,2504,3346,3374,,3801,3865,,,3661,2774,3986,,,2,,,,,
,-3,23,1135,,667,909,1129,,1172,1181,,,1200,676,1510,,,6,,,,,
,-62,-18,-145,,-32,-5,-6,,124,22,,,134,-3,147,,,5,,,,,
,-56,-15,-908,,-898,-993,-865,,-834,-988,,,-692,-728,-828,,,2,,,,,
,408,,-3548,,-2638,-3556,-3494,,-3950,-3952,,,-3590,-2629,-3760,,,7,,,,,
,-229,10,-1206,,-671,-1053,-1225,,-1370,-1236,,,-1227,-590,-1397,,,-9,,,,,
,-193,-11,-95,,154,93,17,,-82,25,,,-230,-51,-295,,,6,,,,,
,74,12,986,,902,1080,977,,1129,1053,,,533,620,663,,,-6,,,,,
,-33,,3661,,2348,3398,3453,,3631,3859,,,3656,2690,4030,,,-13,,,,,
,214,-11,1113,,545,868,1219,,1040,1116,,,1209,646,1691,,,5,,,,,
,67,,-33,,-69,-119,20,,75,-20,,,179,41,366,,,5,,,,,
,-294,28,-689,,-542,-722,-585,,-888,-878,,,-823,-691,-795,,,1,,,,,
,34,-15,-3396,,-2399,-3248,-3203,,-3690,-3831,,,-3610,-2724,-4082,,,-2,,,,,
,-20,-7,-876,,-479,-792,-998,,-1118,-1136,,,-1320,-735,-1601,,,-9,,,,,
,240,6,-39,,-177,-54,-105,,-98,-64,,,-6,-12,-184,,,10,,,,,
,-219,-17,831,,799,844,655,,778,937,,,761,725,756,,,2,,,,,
,-38,12,3589,,2630,3482,3358,,3850,3950,,,3641,2735,3869,,,-4,,,,,
,2405,17,1425,,810,1116,1266,,1468,1224,,,1144,554,1502,,,2,,,,,
,-1957,-3,32,,19,22,92,,174,20,,,159,-26,79,,,5,,,,,
,-486,-17,-923,,-773,-924,-812,,-923,-995,,,-841,-725,-797,,,-15,,,,,
,144,2,-3444,,-2497,-3429,-3363,,-3999,-3939,,,-3602,-2665,-3972,,,6,,,,,
,211,-1,-943,,-490,-755,-1001,,-1249,-1090,,,-1299,-678,-1700,,,-4,,,,,
,271,2,-39,,26,76,-29,,35,19,,,-77,-44,-327,,,3,,,,,
,218,-13,510,,507,731,659,,858,945,,,776,689,836,,,2,,,,,
,3664,9,3362,,2463,3396,3306,,4047,3889,,,3495,2555,3855,,,,,,,,
,-3851,-4,1253,,650,930,1137,,939,1108,,,1312,698,1543,,,3,,,,,
,-551,14,50,,50,36,77,,-83,59,,,165,133,150,,,-3,,,,,
,7,-1,-966,,-859,-989,-825,,-795,-946,,,-667,-667,-695,,,-9,,,,,
,148,-12,-3554,,-2634,-3601,-3530,,-3759,-3982,,,-3335,-2639,-3752,,,16,,,,,
,-133,-17,-1246,,-762,-1086,-1236,,-1257,-1272,,,-1121,-609,-1363,,,-3,,,,,
,515,-1,-23,,-42,-117,-166,,-263,-116,,,-241,64,22,,,5,,,,,
,-609,18,698,,672,849,681,,833,950,,,819,789,813,,,-6,,,,,
,232,3,3571,,2547,3505,3396,,3970,3938,,,3610,2660,3958,,,3,,,,,
,-167,-21,1118,,656,936,1110,,1469,1153,,,1240,547,1606,,,4,,,,,
,-21,20,-527,,-108,-145,-81,,26,-16,,,110,14,213,,,-5,,,,,
,274,-20,-687,,-630,-844,-619,,-948,-905,,,-692,-647,-797,,,-7,,,,,
,-339,-2,-2407,,-2194,-3067,-2954,,-3861,-3819,,,-3535,-2650,-3831,,,5,,,,,
,16,2,-967,,-631,-845,-1093,,-1236,-1150,,,-1366,-701,-1506,,,-19,,,,,
,-38,,-213,,-91,-107,-200,,-51,-66,,,-111,-69,-298,,,9,,,,,
,95,-2,913,,531,828,745,,861,912,,,921,742,745,,,10,,,,,
,-93,1,3925,,2882,3627,3552,,3895,3969,,,3462,2697,3929,,,-8,,,,,
,380,,1396,,810,1056,1190,,1354,1244,,,1123,560,1393,,,7,,,,,
,4415,17,333,,188,127,115,,508,120,,,185,-106,-19,,,3,,,,,
,-3804,-6,-719,,-633,-803,-675,,-1025,-934,,,-789,-707,-815,,,-3,,,,,
,-876,-8,-3281,,-2418,-3322,-3184,,-4067,-3940,,,-3640,-2646,-3881,,,-4,,,,,
,245,-3,-902,,-492,-890,-1103,,-1245,-1165,,,-1312,-638,-1590,,,3,,,,,
,1142,-26,-198,,-103,-47,-121,,-192,,,,-191,-45,-248,,,-5,,,,,
,-1032,18,815,,679,918,817,,981,962,,,818,673,827,,,5,,,,,
,-496,-24,3603,,2632,3501,3376,,4083,3978,,,3713,2668,3881,,,1,,,,,
,132,6,1175,,674,925,1128,,1330,1185,,,1344,582,1365,,,-1,,,,,
,-65,25,-68,,-130,-119,-7,,-143,-58,,,83,105,218,,,3,,,,,
,-45,-25,-1030,,-802,-1006,-963,,-953,-963,,,-733,-592,-690,,,-6,,,,,
,82,-7,-3664,,-2680,-3516,-3453,,-3908,-3929,,,-3623,-2715,-3947,,,-2,,,,,
,89,7,-1136,,-663,-939,-1113,,-1187,-1188,,,-1285,-698,-1536,,,8,,,,,
,-159,-7,-257,,-165,-178,-159,,-189,-143,,,-199,-7,-45,,,-2,,,,,
,431,-10,628,,633,753,672,,634,866,,,757,814,920,,,-11,,,,,
,152,13,3588,,2677,3557,3373,,3931,3977,,,3478,2696,3782,,,-5,,,,,
,-711,4,1198,,385,841,1073,,1389,1133,,,1320,610,1523,,,9,,,,,
,67,-6,127,,-44,-112,-10,,366,12,,,287,29,285,,,-4,,,,,
,102,6,-711,,-637,-838,-574,,-1372,-989,,,-722,-585,-624,,,-1,,,,,
,1869,-6,-3397,,-2366,-3311,-3136,,-3823,-3834,,,-3553,-2576,-3847,,,12,,,,,
,-1772,-7,-970,,-464,-789,-1038,,-1148,-1046,,,-1270,-621,-1433,,,1,,,,,
,322,-3,-188,,-48,-31,-83,,-45,-27,,,-350,-112,-143,,,-9,,,,,
,-463,13,788,,657,859,750,,971,932,,,758,564,660,,,11,,,,,
,178,-13,3575,,2620,3472,3336,,3889,3944,,,3670,2670,3774,,,6,,,,,
,-57,-19,1096,,629,888,1159,,1139,1146,,,1212,682,1464,,,-5,,,,,
,-190,-3,97,,56,121,177,,136,130,,,-10,-81,114,,,2,,,,,
,330,22,-730,,-755,-827,-744,,-862,-902,,,-829,-759,-788,,,-7,,,,,
,4094,12,-3406,,-2473,-3398,-3308,,-3723,-3982,,,-3433,-2697,-4035,,,-6,,,,,
,-3877,-15,-860,,-405,-789,-1031,,-1140,-1192,,,-1085,-607,-1591,,,-4,,,,,
,-368,1,-28,,60,35,-51,,-367,-27,,,-202,46,-662,,,9,,,,,
,-11,-17,598,,680,854,622,,928,985,,,764,714,431,,,4,,,,,
,-179,-12,3320,,2461,3380,3260,,4057,3944,,,3573,2701,3931,,,-8,,,,,
,281,12,1052,,594,840,1026,,1608,1134,,,1407,651,1574,,,-3,,,,,
,-191,13,398,,250,125,207,,-174,71,,,217,60,177,,,3,,,,,
,-23,-25,-735,,-859,-942,-797,,-1071,-984,,,-781,-683,-908,,,-8,,,,,
,331,,-3507,,-2401,-3297,-3201,,-3798,-3845,,,-3825,-2755,-3884,,,17,,,,,
,216,-1,-1139,,-627,-928,-1168,,-1195,-1203,,,-1289,-656,-1431,,,-1,,,,,
,-374,10,-247,,-191,-169,-244,,-125,-129,,,-87,25,-28,,,-13,,,,,
,-243,-10,721,,594,757,636,,796,902,,,907,704,757,,,-1,,,,,
,312,1,3409,,2612,3425,3281,,3837,3920,,,3580,2672,3858,,,11,,,,,
,-315,9,1292,,647,1049,1299,,1332,1210,,,1245,587,1547,,,,,,,,
,1047,,248,,68,35,187,,163,47,,,223,,132,,,4,,,,,
,-1018,-27,-915,,-696,-904,-792,,-797,-940,,,-868,-759,-780,,,-6,,,,,
,-4,17,-3607,,-2676,-3520,-3364,,-4074,-3995,,,-3755,-2675,-3849,,,3,,,,,
,195,1,-1078,,-645,-980,-1138,,-1457,-1155,,,-1367,-591,-1465,,,-11,,,,,
,-192,-23,-127,,-150,-121,-173,,-137,-62,,,-117,2,-156,,,-3,,,,,
,77,23,482,,547,731,577,,1118,913,,,877,702,785,,,7,,,,,
,291,-18,3371,,2285,3280,3270,,3701,3822,,,3626,2638,3956,,,3,,,,,
,63,4,1140,,615,794,1061,,1093,1079,,,1311,662,1537,,,-5,,,,,
,-205,-16,-140,,-43,-121,-46,,123,10,,,189,74,173,,,6,,,,,
,14,9,-835,,-741,-836,-774,,-875,-858,,,-907,-720,-798,,,9,,,,,
,-200,-9,-3315,,-2491,-3355,-3291,,-3866,-3927,,,-3652,-2724,-3984,,,-5,,,,,
,-34,8,-886,,-458,-786,-953,,-1180,-1149,,,-1389,-633,-1354,,,,,,,,
,618,3,121,,170,70,63,,-124,-28,,,-139,79,-37,,,3,,,,,
,-540,-11,909,,953,1010,912,,885,987,,,853,759,725,,,6,,,,,
,54,,3476,,2473,3433,3345,,3877,3916,,,3651,2610,3819,,,-11,,,,,
,1656,12,972,,379,881,1195,,1273,1131,,,1325,553,1493,,,-8,,,,,
,-1687,-8,61,,104,57,78,,224,6,,,211,-50,106,,,9,,,,,
,-79,9,-627,,-551,-827,-745,,-910,-925,,,-851,-651,-773,,,1,,,,,
,6,-13,-3501,,-2433,-3409,-3363,,-3894,-3915,,,-3621,-2641,-3979,,,9,,,,,
,1588,-22,-1025,,-462,-779,-1019,,-1146,-1098,,,-1377,-708,-1541,,,-6,,,,,
,-1592,35,-101,,-155,-14,-126,,113,-67,,,-207,-90,-172,,,-6,,,,,
,226,-15,532,,545,765,645,,588,904,,,747,746,932,,,-8,,,,,
,-229,2,3441,,2456,3379,3367,,3574,3914,,,3546,2754,3963,,,1,,,,,
,35,-5,1353,,690,1050,1334,,1280,1282,,,1256,665,1454,,,5,,,,,
,114,-17,187,,127,166,166,,267,94,,,98,-93,66,,,3,,,,,
,-32,22,-900,,-690,-867,-805,,-721,-917,,,-906,-740,-793,,,-8,,,,,
,234,-31,-3650,,-2643,-3557,-3459,,-3861,-3999,,,-3485,-2672,-3863,,,3,,,,,
,-457,9,-1214,,-682,-1009,-1253,,-1443,-1186,,,-1304,-568,-1399,,,11,,,,,
,52,7,-284,,-29,-91,-245,,-144,-36,,,-67,38,-358,,,-5,,,,,
,97,-18,1070,,752,965,961,,967,937,,,969,739,811,,,-7,,,,,
,-41,14,3875,,2651,3576,3582,,3973,3930,,,3583,2621,3924,,,6,,,,,
,412,,958,,468,791,1049,,1296,1122,,,1325,607,1579,,,1,,,,,
,-333,-12,-153,,-17,-107,-42,,41,-70,,,195,52,106,,,12,,,,,
,112,-1,-933,,-607,-892,-858,,-894,-947,,,-725,-653,-829,,,-6,,,,,
,-143,14,-3367,,-2568,-3372,-3302,,-3793,-3858,,,-3537,-2695,-3773,,,-2,,,,,
,3,-4,-967,,-551,-913,-1078,,-1146,-1144,,,-1275,-700,-1401,,,-3,,,,,
,-158,-9,-124,,-7,-82,-85,,-39,-87,,,-32,20,-148,,,-11,,,,,
,414,,889,,858,915,810,,1051,895,,,922,806,727,,,-4,,,,,
,114,-1,3569,,2465,3405,3425,,3691,3922,,,3484,2706,3942,,,10,,,,,
,-403,1,1032,,423,860,1175,,840,1137,,,1181,653,1700,,,2,,,,,
,48,-22,41,,16,-23,17,,335,-27,,,218,-7,137,,,-7,,,,,
,131,5,-822,,-696,-974,-899,,-774,-1054,,,-679,-708,-866,,,7,,,,,
,-95,17,-3723,,-2685,-3561,-3407,,-4055,-3969,,,-3694,-2619,-3862,,,3,,,,,
,-91,-18,-1173,,-576,-881,-1091,,-1317,-1069,,,-1366,-660,-1600,,,7,,,,,
,138,17,28,,58,4,-89,,96,81,,,-110,-71,-213,,,-21,,,,,
,-293,-17,828,,714,916,818,,997,948,,,760,668,904,,,-1,,,,,
,371,-12,3557,,2598,3444,3384,,3889,3875,,,3567,2613,3922,,,9,,,,,
,157,-2,987,,473,812,1123,,1120,1129,,,1253,698,1505,,,11,,,,,
,-186,19,-8,,7,79,114,,-33,118,,,-12,4,238,,,-4,,,,,
,-84,-16,-706,,-647,-811,-761,,-827,-932,,,-796,-768,-794,,,-4,,,,,
,-95,13,-3519,,-2580,-3523,-3429,,-3835,-3995,,,-3544,-2676,-3910,,,,,,,,
,5,-3,-1083,,-645,-995,-1141,,-1335,-1206,,,-1285,-620,-1519,,,5,,,,,
,-117,,4,,3,-53,-172,,-198,-42,,,-228,16,-198,,,8,,,,,
,56,-1,620,,640,841,539,,993,985,,,915,701,498,,,-15,,,,,
,977,10,3161,,2369,3262,3141,,4109,3920,,,3740,2644,3763,,,-9,,,,,
,708,-12,1253,,635,975,1306,,998,1164,,,1178,619,1672,,,13,,,,,
,-1750,-18,202,,225,76,123,,256,-13,,,249,37,199,,,1,,,,,
,296,-13,-760,,-453,-792,-716,,-814,-973,,,-792,-600,-705,,,1,,,,,
,-158,8,-3411,,-2664,-3372,-3237,,-3954,-3910,,,-3550,-2642,-3828,,,9,,,,,
,-49,15,-975,,-461,-814,-1030,,-1160,-1090,,,-1212,-670,-1523,,,-10,,,,,
,59,-20,113,,140,100,-2,,84,17,,,-194,-103,-151,,,-6,,,,,
,-71,22,878,,751,977,872,,925,963,,,843,743,873,,,3,,,,,
,108,-21,3441,,2723,3484,3388,,3828,3924,,,3629,2739,3862,,,3,,,,,
,74,9,1143,,514,949,1181,,1217,1181,,,1129,617,1505,,,-2,,,,,
,-268,-9,3,,-54,27,108,,81,70,,,-27,-39,277,,,2,,,,,
,265,-14,-890,,-724,-987,-918,,-799,-990,,,-718,-688,-737,,,-3,,,,,
,-234,1,-3377,,-2567,-3492,-3412,,-3892,-3978,,,-3626,-2682,-3971,,,2,,,,,
,170,13,-1162,,-618,-986,-1179,,-1435,-1200,,,-1331,-558,-1623,,,-1,,,,,
,446,,-186,,-110,-75,-190,,-160,-35,,,-136,30,-270,,,5,,,,,
,-433,7,694,,591,789,677,,1100,930,,,899,747,839,,,-4,,,,,
,87,-3,3471,,2564,3438,3391,,3742,3932,,,3729,2706,4038,,,-1,,,,,
,-213,-4,1181,,697,918,1199,,1213,1163,,,1158,559,1477,,,2,,,,,
,672,,113,,149,50,93,,133,10,,,97,26,145,,,-7,,,,,
,267,-4,-711,,-708,-726,-671,,-917,-884,,,-952,-769,-802,,,1,,,,,
,-919,-9,-3487,,-2609,-3366,-3272,,-3843,-3893,,,-3583,-2656,-3843,,,-5,,,,,
,529,-22,-1000,,-604,-938,-1114,,-1180,-1141,,,-1024,-566,-1423,,,11,,,,,
,-607,22,12,,55,12,-114,,64,3,,,-26,-18,-191,,,7,,,,,
,17,-18,946,,859,960,813,,894,961,,,722,704,657,,,-8,,,,,
,-110,1,3658,,2639,3525,3388,,3854,3955,,,3537,2656,3820,,,-7,,,,,
,304,-2,928,,528,863,1034,,1347,1116,,,1258,607,1445,,,-5,,,,,
,-327,,-137,,-66,-98,-56,,193,1,,,281,31,159,,,4,,,,,
,57,-11,-755,,-640,-915,-753,,-916,-1021,,,-876,-732,-764,,,4,,,,,
,-138,-2,-3520,,-2514,-3467,-3382,,-4043,-3972,,,-3649,-2601,-3800,,,4,,,,,
,219,-3,-946,,-807,-930,-1217,,-1381,-1132,,,-1277,-615,-1493,,,-11,,,,,
,363,16,-50,,-6,-38,-111,,2,-59,,,-35,-44,-162,,,7,,,,,
,-411,2,687,,611,733,674,,916,825,,,965,736,865,,,12,,,,,
,34,-1,3667,,2634,3392,3340,,3879,3844,,,3515,2731,3997,,,-12,,,,,
,-3,-12,1072,,770,891,1105,,1245,1136,,,1135,649,1473,,,-10,,,,,
,156,13,-123,,-174,-41,20,,219,65,,,64,-43,51,,,14,,,,,
,855,-13,-772,,-770,-799,-620,,-855,-867,,,-824,-775,-876,,,-4,,,,,
,-910,13,-3391,,-2434,-3304,-3231,,-4052,-3919,,,-3581,-2705,-4122,,,-3,,,,,
,2885,-1,-1024,,-538,-932,-1148,,-1286,-1214,,,-1332,-628,-1657,,,-1,,,,,
,-705,-21,-85,,67,-26,-81,,-119,19,,,-171,63,-164,,,7,,,,,
,-2041,24,742,,680,895,701,,961,1026,,,892,738,866,,,10,,,,,
,-250,-15,3584,,2548,3501,3347,,3925,3921,,,3550,2656,3997,,,-13,,,,,
,294,,1330,,633,980,1192,,1296,1136,,,1139,579,1535,,,1,,,,,
,-377,-18,-76,,-12,-79,71,,106,7,,,263,27,62,,,7,,,,,
,53,18,-1071,,-732,-910,-708,,-1143,-921,,,-1004,-667,-691,,,,,,,,
,-208,-18,-3479,,-2576,-3370,-3323,,-4000,-3834,,,-3686,-2695,-3832,,,-11,,,,,
,816,13,-885,,-489,-816,-1124,,-1140,-1128,,,-1366,-761,-1639,,,-4,,,,,
,-614,-13,-62,,-29,-2,-83,,59,-33,,,8,-33,-388,,,10,,,,,
,-8,-17,902,,730,935,890,,880,946,,,893,776,821,,,2,,,,,
,5,,3768,,2811,3605,3565,,3842,3963,,,3518,2647,3901,,,-8,,,,,
,197,17,1221,,772,1026,1215,,1591,1151,,,1234,506,1472,,,1,,,,,
,-236,-13,177,,-104,47,64,,-20,1,,,256,28,224,,,-6,,,,,
,-78,,-760,,-591,-870,-764,,-1020,-964,,,-804,-706,-698,,,16,,,,,
,6,12,-3647,,-2695,-3558,-3400,,-3817,-3949,,,-3605,-2688,-3940,,,-3,,,,,
,-35,-13,-1274,,-760,-1018,-1236,,-1498,-1132,,,-1310,-537,-1454,,,,,,,,
,310,14,-120,,-17,-17,-219,,-48,6,,,-72,53,-53,,,-12,,,,,
,132,-4,824,,637,823,660,,970,940,,,1018,785,1148,,,8,,,,,
,-207,-9,3653,,2504,3384,3338,,3978,3828,,,3695,2685,4001,,,-6,,,,,
,-234,-19,1141,,638,836,1123,,1282,1071,,,1190,654,1514,,,-1,,,,,
,142,19,-146,,1,-80,-19,,-25,9,,,198,115,167,,,5,,,,,
,-79,-18,-761,,-658,-775,-660,,-850,-897,,,-764,-700,-744,,,8,,,,,
,472,30,-3402,,-2534,-3361,-3227,,-3850,-3923,,,-3590,-2681,-3780,,,1,,,,,
,-302,-12,-864,,-475,-855,-976,,-1078,-1181,,,-1272,-674,-1503,,,,,,,,
,6,,116,,96,-33,-67,,-52,-113,,,-98,20,-150,,,,,,,,
,-138,-26,959,,848,993,860,,756,982,,,686,731,837,,,-6,,,,,
,-10,9,3510,,2591,3518,3371,,3987,3985,,,3587,2627,3815,,,-4,,,,,
,-59,-15,742,,368,739,987,,1270,1135,,,1186,557,1605,,,-1,,,,,
,202,10,-43,,-127,-86,63,,55,-27,,,91,-61,102,,,3,,,,,
,-64,-8,-700,,-681,-905,-692,,-985,-985,,,-833,-688,-839,,,9,,,,,
,-51,8,-3654,,-2572,-3474,-3413,,-3947,-3930,,,-3611,-2659,-3985,,,-3,,,,,
,-133,-8,-961,,-501,-734,-990,,-1048,-978,,,-1256,-748,-1611,,,2,,,,,
,69,,207,,172,140,41,,-312,50,,,-70,-56,-127,,,-5,,,,,
,714,13,724,,708,815,616,,1087,928,,,816,738,850,,,-2,,,,,
,-609,,3509,,2680,3377,3323,,3890,3877,,,3644,2716,3848,,,-4,,,,,
,95,-2,1175,,688,923,1130,,1280,1171,,,1257,603,1461,,,11,,,,,
,-236,-11,198,,-38,160,245,,86,171,,,-38,-66,205,,,-6,,,,,
,86,,-658,,-675,-775,-613,,-726,-905,,,-677,-711,-771,,,-4,,,,,
,47,-44,-3490,,-2640,-3484,-3313,,-3858,-3992,,,-3427,-2617,-3810,,,9,,,,,
,-76,47,-1115,,-496,-968,-1127,,-1238,-1201,,,-1338,-631,-1570,,,,,,,,
,-9,-3,-125,,66,27,-49,,-187,29,,,-165,27,-88,,,-7,,,,,
,105,,490,,674,892,737,,903,972,,,844,663,842,,,-2,,,,,
,-90,-19,3392,,2529,3390,3210,,3933,3870,,,3587,2616,3809,,,3,,,,,
,28,-24,1114,,567,854,1020,,1221,1089,,,1118,585,1414,,,-1,,,,,
,67,-1,-60,,-76,-143,-11,,-49,-42,,,164,140,167,,,2,,,,,
,20,1,-1317,,-795,-1033,-1099,,-923,-980,,,-771,-567,-889,,,-3,,,,,
,-94,23,-3796,,-2613,-3415,-3380,,-3782,-3869,,,-3530,-2642,-4024,,,-8,,,,,
,-23,-24,-395,,-489,-711,-745,,-1181,-1119,,,-1326,-632,-1480,,,7,,,,,
,376,-10,155,,65,-29,-68,,5,-59,,,-385,-52,-259,,,4,,,,,
