Packet Number (n), App Timestamp (us),Sensor Timestamp (us),Fp1 (uV),Disabled (uV),F3 (uV),Fz (uV),F4 (uV),Disabled (uV),C3 (uV),Cz (uV),C4 (uV),Disabled (uV),P3 (uV),Pz (uV),P4 (uV),Disabled (uV),Disabled (uV),Ref,AccX (mg),AccY (mg),AccZ (mg),Event A, Event B
5692,23278000,603443247,4059.54225,0.0,-2854.5867,19844.14035,-6158.74365,0.0,-969.096,9178.67565,19307.1369,0.0,-12176.1459,-12552.7434,-10078.3749,0.0,0.0,-21.65715,0,0,0,0,0
,-4000,3,346,,-15,-183,-411,,124,226,-293,,175,-129,-147,,,2,,,,,
,-4000,,-129,,-5,-241,-339,,-181,124,-192,,-132,-216,-43,,,5,,,,,
,-3000,5,-746,,-249,-236,-90,,-244,-56,-145,,-103,-57,-12,,,3,,,,,
,-2000,-3,-37,,114,-85,-214,,30,138,-188,,-203,-29,-95,,,2,,,,,
,-4000,3,-205,,172,-5,-76,,220,92,-20,,-266,-16,48,,,,,,,,
,-2000,,35,,-226,-135,-172,,-356,-274,-92,,-222,-179,261,,,-5,,,,,
,-3000,2,-155,,-102,-4,-85,,-259,-221,-12,,-124,-314,-92,,,,,,,,
,-4000,-3,-606,,-98,51,155,,-23,167,109,,-250,112,-115,,,-7,,,,,
,-3000,7,-83,,175,101,-93,,177,154,147,,-85,130,26,,,-2,,,,,
,-4000,1,-157,,163,53,-78,,-119,64,1,,133,203,83,,,-1,,,,,
,-3000,,223,,-506,-158,-312,,-190,122,-91,,47,137,-93,,,-4,,,,,
,-4000,-3,511,,-188,-109,122,,51,-118,116,,326,28,52,,,12,,,,,
,3000,6,242,,247,127,150,,111,147,142,,-21,-85,177,,,5,,,,,
,-3000,2,-67,,38,17,133,,-112,-135,16,,-260,-177,-117,,,4,,,,,
,-3000,,-308,,124,-9,234,,75,-1,-92,,99,-89,-270,,,-11,,,,,
,-3000,9,-93,,178,79,-92,,230,-15,-264,,248,11,-247,,,7,,,,,
,-4000,4,258,,-125,-149,-510,,219,-413,-68,,181,168,-9,,,-1,,,,,
,9000,1,-40,,-195,-120,411,,119,-267,-42,,-83,-111,-130,,,-12,,,,,
,-3000,-9,-183,,173,278,524,,97,48,182,,283,-40,145,,,2,,,,,
,-3000,10,-399,,-42,-233,-469,,-213,95,-48,,3,-210,-89,,,8,,,,,
,-1000,-8,-751,,-555,-362,-408,,-451,-378,-113,,-49,-47,-274,,,-9,,,,,
,-4000,2,-2,,370,33,-217,,-6,126,127,,301,230,460,,,-3,,,,,
,-3000,,912,,-85,19,256,,164,65,99,,130,140,377,,,,,,,,
,-2000,2,192,,-354,28,-45,,-62,147,30,,-103,-43,294,,,7,,,,,
,-2000,3,-435,,51,-43,383,,-62,-49,23,,75,150,285,,,14,,,,,
,-2000,,-147,,126,2,276,,78,-292,-138,,103,-81,-120,,,-7,,,,,
,1000,,-179,,44,92,-211,,52,44,-34,,-15,-271,-186,,,1,,,,,
,-2000,3,-171,,148,120,101,,79,322,-205,,-218,-237,-322,,,6,,,,,
,1000,1,792,,-221,88,449,,-194,-120,-38,,-315,-143,-214,,,-4,,,,,
,1000,,408,,-5,64,216,,75,-70,163,,-196,181,381,,,3,,,,,
,-1000,1,-190,,244,-190,-729,,38,125,205,,-35,93,239,,,-7,,,,,
,-3000,1,-483,,44,-163,-139,,-261,-93,9,,-61,-95,-358,,,-14,,,,,
,-4000,10,-263,,-232,-117,-147,,35,-237,-130,,250,161,-215,,,-4,,,,,
,-3000,-7,-261,,-555,-444,-220,,-69,-188,-185,,-182,,-267,,,21,,,,,
,-4000,,148,,47,-125,-656,,7,51,-156,,-291,30,-26,,,3,,,,,
,11000,4,498,,375,220,298,,58,57,71,,-20,8,301,,,-11,,,,,
,-3000,-1,76,,300,275,224,,106,155,170,,392,185,162,,,-3,,,,,
,-3000,3,-133,,257,199,302,,135,204,228,,621,217,32,,,9,,,,,
,-3000,-1,303,,-262,102,401,,-127,-37,-18,,352,55,176,,,-1,,,,,
,-3000,-2,-22,,14,211,683,,-68,-38,12,,-145,-83,-155,,,1,,,,,
,1000,6,-5,,224,12,-135,,-135,-89,-109,,-83,-242,-468,,,-14,,,,,
,2000,2,409,,-250,-142,-747,,-146,-116,37,,-355,-72,-201,,,3,,,,,
,-3000,-1,-466,,-303,-1,137,,18,335,153,,-250,162,230,,,12,,,,,
,,-1,-237,,-134,-105,-67,,-92,100,-138,,-82,-128,-167,,,-5,,,,,
,2000,3,60,,254,-50,-480,,-129,26,-40,,-228,36,-90,,,,,,,,
,11000,3,-363,,118,83,182,,10,43,41,,-42,70,133,,,2,,,,,
,-4000,-1,-562,,473,85,188,,90,263,24,,168,-34,148,,,-9,,,,,
,,4,333,,-60,109,332,,141,314,275,,203,198,245,,,10,,,,,
,-4000,-1,709,,-630,-111,603,,-157,25,27,,67,-74,-71,,,-12,,,,,
,-2000,3,-172,,141,-114,-712,,-85,-89,-87,,344,24,173,,,-3,,,,,
,-1000,4,-107,,-118,-99,31,,9,-154,-77,,414,196,59,,,4,,,,,
,2000,-4,46,,-373,82,590,,182,236,145,,369,239,338,,,5,,,,,
,-1000,3,-223,,-63,-56,-156,,167,-21,-20,,-147,-165,-34,,,3,,,,,
,9000,6,23,,169,-126,-478,,-65,-109,-244,,-283,-205,-506,,,13,,,,,
,7000,-4,482,,76,67,-70,,138,62,-176,,29,-77,-212,,,-1,,,,,
,-3000,,24,,293,65,-185,,-116,68,-130,,-127,-133,68,,,-13,,,,,
,-4000,4,408,,-156,-85,-41,,-238,-61,-228,,-238,-344,62,,,-1,,,,,
,-3000,7,46,,75,68,221,,-87,-17,10,,-256,-104,191,,,-10,,,,,
,-3000,-6,-221,,298,142,234,,-82,-9,325,,-324,298,424,,,2,,,,,
,-4000,-3,186,,-118,-19,1011,,-252,-306,285,,251,140,702,,,2,,,,,
,,6,-166,,-120,-65,19,,-90,-322,139,,175,50,413,,,-1,,,,,
,,,-108,,765,280,-79,,254,15,252,,375,123,51,,,,,,,,
,-2000,1,-889,,88,124,-230,,154,-104,108,,19,-7,-454,,,2,,,,,
,,2,258,,-743,-103,-950,,181,-7,-208,,-61,-28,-257,,,9,,,,,
,,2,849,,-288,-327,-500,,8,-37,-132,,-159,-19,200,,,-2,,,,,
,,-1,248,,-72,-427,-229,,65,-195,-48,,2,14,205,,,-3,,,,,
,17000,2,471,,310,70,314,,258,72,137,,396,228,93,,,-4,,,,,
,21000,,117,,280,122,909,,312,71,98,,444,215,174,,,1,,,,,
,-4000,4,-998,,443,121,218,,126,115,17,,-14,103,266,,,8,,,,,
,-3000,-1,-287,,-212,24,45,,-249,567,-188,,-79,-106,-260,,,,,,,,
,118000,2,337,,-833,-248,-328,,-460,112,-508,,-395,-190,-650,,,-11,,,,,
,-3000,,-389,,-288,-177,-252,,-125,-217,-217,,-370,-167,-245,,,7,,,,,
,-4000,3,-406,,533,237,777,,336,-61,77,,249,-42,213,,,1,,,,,
,-4000,,-51,,420,155,-286,,57,97,-64,,281,175,244,,,4,,,,,
,-4000,2,188,,-138,-138,-869,,67,99,-14,,-11,69,72,,,-3,,,,,
,-3000,,95,,-134,-187,-788,,16,70,-147,,11,57,-214,,,-4,,,,,
,77000,3,-580,,88,-4,-389,,155,135,-224,,-351,-5,-290,,,-11,,,,,
,-3000,11,-115,,26,118,320,,215,112,195,,-125,-2,-18,,,14,,,,,
,-3000,-10,595,,-280,-14,455,,-263,-85,293,,28,-116,-87,,,-6,,,,,
,-4000,1,-320,,-36,-23,-20,,-425,-322,132,,-249,-143,-1,,,13,,,,,
,-4000,-1,-366,,17,-237,475,,-240,-255,-22,,-223,-191,-140,,,-4,,,,,
,-3000,-1,402,,-195,-125,-161,,-60,-97,49,,-157,-158,-96,,,,,,,,
,35000,4,485,,307,373,147,,142,137,196,,59,81,184,,,-4,,,,,
,-4000,2,444,,344,339,262,,67,477,169,,218,130,61,,,9,,,,,
,-3000,1,-390,,-81,-76,-171,,-332,353,-206,,-88,-173,11,,,-6,,,,,
,-4000,4,-182,,-356,-214,-93,,-377,-290,-238,,-175,-155,74,,,-4,,,,,
,-3000,-1,-212,,147,173,100,,217,-1,2,,155,69,-8,,,-2,,,,,
,-2000,1,104,,403,329,269,,36,280,-30,,22,181,-330,,,4,,,,,
,-4000,,435,,-77,-10,-19,,-90,-60,98,,-363,36,-287,,,-3,,,,,
,-3000,2,-189,,22,-4,51,,10,58,117,,46,51,309,,,-9,,,,,
,-4000,1,-674,,-209,-151,57,,187,-172,40,,155,15,223,,,-1,,,,,
,-3000,1,-155,,238,171,528,,344,-66,101,,-22,5,2,,,7,,,,,
,-4000,2,637,,-114,37,-70,,-120,-189,191,,-82,-132,135,,,-7,,,,,
,-3000,4,119,,-283,-211,-1142,,-150,-154,-87,,-251,-165,-82,,,-3,,,,,
,-3000,-2,-355,,24,-268,-335,,-262,-36,-149,,-208,-254,-3,,,9,,,,,
,-4000,-1,31,,91,120,386,,218,137,166,,190,112,18,,,6,,,,,
,-3000,3,225,,62,241,109,,229,32,186,,263,244,-30,,,5,,,,,
,-4000,1,22,,-144,58,550,,-151,-131,92,,73,255,-51,,,2,,,,,
,-3000,2,-680,,-9,-6,-67,,-112,-40,-100,,-278,-2,-539,,,-8,,,,,
,-3000,1,-67,,70,-189,-828,,-67,75,-178,,-88,-160,-97,,,-12,,,,,
,-3000,1,302,,-255,-240,-215,,-89,251,-204,,405,-53,111,,,11,,,,,
,-4000,,-119,,-668,-231,82,,-93,-55,-260,,320,-177,-375,,,-3,,,,,
5,-3000,20009,684,,583,303,665,,236,215,389,,681,209,566,,,10,,,,,
,-4000,6,493,,164,99,-92,,59,26,71,,326,-22,-146,,,-2,,,,,
,-3000,-7,367,,358,161,104,,-40,-55,59,,-157,48,250,,,9,,,,,
,-4000,2,114,,-120,-158,-7,,-322,-144,-51,,-704,-130,-87,,,-8,,,,,
,-2000,,123,,-173,-113,146,,-177,-255,-44,,-416,-317,-178,,,7,,,,,
,-4000,1,859,,-309,-89,-103,,-73,-276,-134,,-177,-246,-210,,,-3,,,,,
15,-3000,60018,11943,,1689,1511,1507,,318,-169,-209,,-716,-392,555,,,-8,,,,,
,-4000,5,-970,,-615,-507,-525,,-298,-124,-444,,-259,-105,-85,,,2,,,,,
,-4000,5,-1104,,-328,-316,-325,,-327,13,-137,,-271,-202,-223,,,-2,,,,,
,-3000,-5,120,,-292,-22,335,,-294,-89,93,,-207,-173,-350,,,4,,,,,
,-4000,,-655,,-127,236,312,,-74,-17,157,,-20,1,137,,,5,,,,,
,-2000,2,-794,,480,298,-96,,270,-52,261,,-96,75,-64,,,-12,,,,,
5,-4000,20057,-3606,,-304,-896,-354,,85,911,105,,383,267,198,,,-2,,,,,
,-4000,-41,-260,,281,203,-58,,64,-52,315,,-21,378,531,,,6,,,,,
,-3000,-5,-615,,401,303,-121,,256,230,134,,28,94,116,,,-2,,,,,
,-4000,,-146,,-282,38,-20,,-140,152,-54,,41,-155,-49,,,1,,,,,
40,232000,160073,-5651,,-568,-859,-1325,,77,437,-337,,260,-270,-1601,,,-10,,,,,
,-4000,-4,917,,-546,-96,13,,220,-49,210,,286,45,471,,,9,,,,,
,-3000,,-233,,10,84,405,,212,-96,277,,544,12,413,,,2,,,,,
,-3000,,-179,,745,324,304,,159,-140,256,,239,93,161,,,-1,,,,,
,-3000,,380,,13,37,257,,-5,-76,263,,50,177,102,,,3,,,,,
,-3000,4,371,,-117,-22,54,,-154,-149,-20,,-196,32,-16,,,-3,,,,,
,3000,,-50,,109,57,429,,-31,227,-310,,-54,-102,-285,,,-5,,,,,
,-4000,3,-709,,-59,-306,-783,,-221,-105,-518,,-171,-272,-200,,,,,,,,
,-3000,1,-402,,-75,-219,-541,,163,-185,-167,,49,23,-74,,,7,,,,,
,-4000,1,51,,176,70,362,,90,-249,80,,-8,187,107,,,5,,,,,
,-3000,,256,,-362,-197,-183,,-104,-188,-41,,66,19,72,,,-12,,,,,
,-4000,3,157,,-362,-271,-160,,-135,-113,-217,,-79,-172,-196,,,,,,,,
,-2000,,-797,,-63,-121,-127,,150,-44,-14,,199,-118,-180,,,15,,,,,
,-3000,1,-721,,333,221,70,,112,296,300,,224,59,191,,,-9,,,,,
,-4000,3,208,,583,203,491,,-116,291,143,,-248,15,185,,,-4,,,,,
,-3000,1,533,,-390,-184,-87,,-191,-104,-229,,-488,-288,-197,,,-4,,,,,
,-4000,5,573,,-634,-430,-608,,-158,-108,-231,,-67,-152,-150,,,6,,,,,
,-3000,-9,-89,,-231,-247,-279,,-142,-182,-289,,-55,-121,-73,,,3,,,,,
,-2000,8,-472,,-27,-39,-218,,39,64,-233,,213,-45,-273,,,-1,,,,,
,-3000,-4,-630,,50,147,234,,155,279,136,,294,120,161,,,6,,,,,
,-4000,5,-42,,119,159,571,,72,121,35,,220,165,58,,,-8,,,,,
,-3000,8,-850,,412,165,370,,41,-168,-106,,-62,40,-81,,,-4,,,,,
,-3000,-5,-293,,460,78,-115,,124,-114,-219,,24,85,25,,,2,,,,,
,-4000,,1335,,-467,-21,-534,,-27,114,54,,178,-24,-31,,,-3,,,,,
,-3000,19,1065,,-273,69,190,,-100,85,293,,-267,-134,208,,,-3,,,,,
,-4000,12,-503,,-121,39,434,,-70,-161,295,,-211,-8,-168,,,8,,,,,
,3000,-27,-700,,-128,18,48,,-18,-144,101,,-102,14,242,,,1,,,,,
,-4000,2,138,,215,,-185,,37,224,-82,,257,-35,103,,,8,,,,,
,-1000,,183,,577,87,-518,,60,274,111,,161,146,398,,,-8,,,,,
,,-1,27,,-257,-49,345,,-265,7,-96,,-27,-49,-8,,,7,,,,,
,,3,-71,,-96,104,-124,,-97,122,22,,-134,21,-200,,,,,,,,
,,2,202,,73,26,-78,,318,31,109,,234,288,38,,,-2,,,,,
,,,-126,,-122,-103,506,,192,-109,84,,349,103,3,,,-8,,,,,
,,-1,-169,,146,92,651,,126,-106,42,,249,239,95,,,3,,,,,
,-1000,5,49,,76,89,298,,9,-80,-54,,-101,-54,-280,,,5,,,,,
,3000,,-165,,-113,-150,-825,,-232,-332,-82,,-41,-360,-366,,,-9,,,,,
,-2000,3,-343,,124,154,265,,44,-183,-67,,163,-26,-7,,,4,,,,,
,,-3,193,,-108,150,363,,187,110,91,,239,-83,245,,,-10,,,,,
,4000,5,507,,307,22,-424,,51,264,-100,,-181,-188,-218,,,15,,,,,
,10000,,577,,100,-92,-319,,-37,171,-102,,-487,-224,-613,,,1,,,,,
,-3000,,375,,110,227,486,,177,143,182,,-313,113,-166,,,-11,,,,,
,-4000,3,-605,,106,-11,-10,,-207,-393,14,,123,166,140,,,-1,,,,,
,-3000,1,-298,,,-59,-168,,80,-13,80,,293,215,233,,,8,,,,,
,-3000,25,-6,,-138,20,133,,210,387,39,,249,-20,150,,,,,,,,
,-1000,-22,-1,,-325,-34,-115,,-11,289,-200,,225,-27,-124,,,-7,,,,,
,2000,1,-92,,-146,-107,-31,,22,111,-197,,77,40,-112,,,4,,,,,
,-2000,17,322,,55,-221,-341,,-299,-220,-100,,183,-137,-77,,,2,,,,,
,2000,-14,148,,43,141,232,,-11,-82,287,,30,153,258,,,-12,,,,,
,,,-209,,185,198,354,,42,26,180,,-226,104,68,,,6,,,,,
,3000,17,42,,-151,-29,36,,105,80,37,,-209,-213,-79,,,7,,,,,
,-4000,20,209,,-58,-5,-266,,10,-248,-149,,-347,-202,-176,,,2,,,,,
,-1000,-12,286,,149,196,-168,,-171,41,-72,,-254,-66,49,,,-4,,,,,
,,-21,-630,,194,87,323,,-122,82,-55,,-229,-102,125,,,2,,,,,
,,2,-143,,473,-3,198,,27,-226,26,,163,248,251,,,4,,,,,
,1000,3,687,,-170,-53,-575,,30,-46,181,,294,373,214,,,3,,,,,
,-1000,-3,53,,-565,-195,-173,,-42,258,-10,,208,130,-157,,,-10,,,,,
,1000,4,-287,,-347,-218,-159,,-38,361,-87,,-91,-46,191,,,5,,,,,
,-1000,,-210,,21,-128,149,,-110,-128,-249,,-166,-54,256,,,-5,,,,,
,,4,-143,,79,27,93,,-10,-132,-23,,-363,-5,55,,,-4,,,,,
,-1000,-4,-200,,-93,4,49,,121,-63,77,,94,30,-154,,,1,,,,,
,2000,5,-619,,-202,-123,126,,-133,-82,22,,-76,-121,-113,,,-2,,,,,
,-1000,,160,,170,-115,-100,,10,13,-51,,269,-46,43,,,3,,,,,
,,3,508,,111,-54,-302,,120,105,-125,,493,251,205,,,-2,,,,,
,,-3,-298,,74,208,-9,,187,32,276,,357,215,249,,,-2,,,,,
,,4,-48,,20,262,273,,1,82,350,,-54,-17,-116,,,6,,,,,
,,,583,,402,283,515,,157,388,171,,-43,-10,-62,,,2,,,,,
,,-2,114,,232,212,674,,238,163,84,,-33,-162,-50,,,6,,,,,
,1000,5,314,,-17,120,76,,-42,240,11,,130,-85,-73,,,-5,,,,,
,,1,-288,,85,16,-348,,76,212,61,,30,-86,-152,,,-8,,,,,
,-1000,1,-115,,-72,34,-694,,-4,52,-119,,15,-16,-373,,,8,,,,,
,,-2,-436,,-24,-171,-110,,-190,-224,-314,,12,-84,-224,,,-4,,,,,
,1000,6,-87,,-318,-66,163,,-123,-280,-85,,-20,-82,29,,,-1,,,,,
,8000,,200,,-478,-185,-119,,-227,-165,-55,,-145,-145,67,,,-10,,,,,
,5000,,18,,143,7,285,,68,49,13,,28,10,300,,,5,,,,,
,-4000,-1,143,,104,91,-47,,81,98,258,,-158,157,140,,,3,,,,,
,-4000,9,-49,,-5,-171,-342,,-79,-203,107,,-315,7,-391,,,-10,,,,,
,-3000,,125,,513,62,174,,123,-7,99,,-64,141,-305,,,17,,,,,
,-1000,27,-79,,-132,11,385,,-106,168,-58,,-206,-73,-365,,,,,,,,
,-2000,-23,-450,,-243,148,157,,-153,317,125,,-8,-79,-204,,,8,,,,,
,,,-333,,282,224,241,,110,388,210,,223,-10,148,,,-11,,,,,
,1000,1,-16,,200,-264,-423,,73,-123,-244,,161,-89,81,,,5,,,,,
,4000,1,55,,-43,-273,-162,,160,-377,-51,,224,258,45,,,3,,,,,
,-4000,-3,446,,-582,-493,21,,-146,-472,-250,,98,-289,-407,,,-10,,,,,
,1000,2,-10,,-550,-249,-326,,-359,-349,-296,,-227,-226,-300,,,6,,,,,
,-1000,5,535,,-38,240,407,,-95,66,31,,-241,214,-28,,,1,,,,,
,-1000,1,197,,35,82,120,,-7,124,-144,,-314,144,234,,,3,,,,,
,1000,-5,-752,,-57,-55,-696,,75,90,-94,,17,13,559,,,-3,,,,,
,,8,161,,84,-60,360,,157,-32,62,,445,150,153,,,3,,,,,
,-1000,,86,,27,-161,-141,,-54,53,-14,,-142,-203,-139,,,2,,,,,
,,,-227,,33,38,-240,,-273,298,47,,-262,-198,-414,,,-7,,,,,
,1000,,-622,,488,244,112,,-33,317,29,,-173,-60,-358,,,-5,,,,,
,1000,1,-242,,-26,148,37,,310,325,78,,-39,183,91,,,2,,,,,
,-2000,5,627,,-295,-157,5,,300,45,141,,308,73,196,,,4,,,,,
,,-5,504,,-209,-228,-356,,-185,-108,52,,-10,12,-42,,,7,,,,,
,,3,55,,-274,-245,-102,,-326,-332,-83,,-335,-37,124,,,-12,,,,,
,,-1,-457,,20,-140,-273,,-154,-153,-59,,2,40,-101,,,-6,,,,,
,-1000,2,-902,,-152,-202,-12,,-261,-315,-136,,-26,-70,-228,,,8,,,,,
,1000,3,43,,-46,-8,249,,49,22,-80,,127,-211,72,,,,,,,,
,2000,1,-118,,-110,-129,-320,,88,-271,-179,,31,-143,-318,,,-5,,,,,
,1000,5,230,,43,185,-256,,82,-111,55,,-109,129,-247,,,3,,,,,
,3000,-9,-198,,88,35,301,,-53,-67,50,,-148,-36,-229,,,4,,,,,
,-3000,8,-274,,54,-23,187,,-110,182,-73,,11,-75,112,,,-7,,,,,
,-3000,17,616,,184,89,-494,,56,340,-140,,293,187,379,,,,,,,,
,,-16,286,,176,191,117,,7,71,127,,-115,173,448,,,-1,,,,,
,1000,-4,335,,167,480,496,,-28,107,353,,-40,234,436,,,9,,,,,
,-1000,7,-66,,-220,58,-336,,1,15,-5,,-228,-120,82,,,-1,,,,,
,,-3,-172,,-106,-196,-181,,91,-176,-162,,-83,-318,-179,,,-4,,,,,
,,4,-390,,110,-170,7,,-38,-115,-166,,161,-3,-302,,,7,,,,,
,,,-310,,385,185,175,,287,210,55,,14,28,-197,,,-4,,,,,
,,5,302,,57,327,774,,214,81,131,,95,49,45,,,-9,,,,,
,,-1,568,,157,291,405,,166,185,109,,256,226,426,,,5,,,,,
,,1,790,,131,93,-123,,144,227,-7,,249,132,314,,,12,,,,,
,,,58,,80,-86,-109,,14,8,20,,193,154,268,,,-15,,,,,
,1000,3,-513,,435,-175,-330,,125,-307,85,,95,249,-126,,,10,,,,,
,21000,1,-153,,-581,-277,-346,,-232,-316,-88,,-115,72,-176,,,6,,,,,
,-2000,,-76,,-611,-185,140,,-297,75,-155,,-254,-130,-51,,,-8,,,,,
,-4000,,-442,,-218,-344,-277,,-69,-22,-213,,-184,-83,-115,,,-4,,,,,
,-3000,,-507,,-34,-341,-415,,-13,-66,-214,,-130,-159,-303,,,14,,,,,
,-3000,4,-150,,-201,-146,16,,-56,-87,-102,,200,-60,52,,,-5,,,,,
,-3000,,238,,-43,149,167,,101,-112,299,,97,257,464,,,-3,,,,,
,-4000,24,476,,440,428,52,,337,-176,350,,499,334,321,,,8,,,,,
,-3000,-15,387,,385,237,135,,223,-135,92,,357,96,22,,,-10,,,,,
,2000,-4,-519,,100,-124,-169,,2,-316,-87,,55,-163,-176,,,7,,,,,
,-2000,-1,-575,,112,84,-47,,-178,144,127,,-140,-145,58,,,-10,,,,,
,4000,1,414,,-239,185,263,,-257,110,6,,-325,-88,-351,,,-1,,,,,
,-3000,,776,,-111,29,-1,,-284,-2,-51,,-173,-42,-184,,,1,,,,,
,6000,31,232,,69,-200,212,,-192,92,-166,,-157,-55,-100,,,,,,,,
,-2000,-27,-446,,-6,-353,-322,,-2,-135,-124,,-95,-105,100,,,-2,,,,,
,-3000,,-654,,-310,-127,-157,,36,-13,4,,23,-51,149,,,11,,,,,
,-2000,,599,,-138,190,54,,174,79,62,,-106,-122,-220,,,-1,,,,,
,,,-36,,73,207,130,,123,42,-55,,-227,-32,-334,,,-3,,,,,
,1000,4,-52,,169,287,278,,37,259,15,,92,43,49,,,1,,,,,
,1000,,-94,,76,94,-55,,-25,246,-7,,104,-132,-115,,,,,,,,
,-2000,15,192,,350,227,219,,198,217,79,,397,174,400,,,-1,,,,,
,1000,-15,422,,297,227,210,,111,-62,182,,179,103,355,,,-2,,,,,
,-1000,,217,,266,48,-104,,-80,-160,83,,83,191,193,,,-10,,,,,
,,5,-187,,-193,-302,-210,,-406,-181,-191,,118,-116,-191,,,12,,,,,
,,3,-1080,,-391,-350,-94,,-350,24,-226,,-55,-119,-362,,,6,,,,,
,,,-152,,-505,-141,-237,,-143,21,-148,,26,-206,-611,,,-2,,,,,
,,1,711,,-541,-87,-265,,80,-75,66,,-42,-3,-18,,,-13,,,,,
,,,-401,,109,28,74,,195,-64,182,,-276,105,175,,,9,,,,,
,1000,,-200,,491,80,138,,174,84,199,,139,130,177,,,5,,,,,
,-1000,4,546,,64,62,170,,263,53,58,,396,129,277,,,-9,,,,,
38,219000,152044,7523,,578,505,1106,,-292,-655,-38,,-371,-486,-1392,,,,,,,,
,-4000,3,1198,,283,226,565,,100,-39,286,,309,137,422,,,,,,,,
,-2000,1,1130,,134,379,645,,5,-104,274,,358,118,386,,,5,,,,,
,-4000,1,1029,,330,475,887,,160,170,216,,300,130,358,,,,,,,,
,-3000,-1,957,,5,128,152,,147,116,-137,,-67,108,-123,,,,,,,,
,-4000,1,529,,53,-188,-350,,88,19,-7,,172,-49,-21,,,-4,,,,,
,-4000,4,395,,248,-85,-453,,43,334,-57,,113,-93,-245,,,-12,,,,,
,-3000,,457,,112,57,29,,-65,296,61,,5,-48,-217,,,2,,,,,
,-4000,,421,,-179,41,120,,-162,-95,-75,,-345,-278,-529,,,14,,,,,
,-3000,3,26,,210,33,203,,-140,-127,6,,-315,-273,-307,,,-4,,,,,
,-3000,1,209,,528,333,-217,,137,-7,-85,,42,104,336,,,1,,,,,
,-4000,,728,,386,412,436,,448,-140,-49,,51,193,615,,,-13,,,,,
,-3000,5,250,,165,100,520,,287,-286,101,,37,207,338,,,-3,,,,,
,-4000,,-337,,-154,-175,-24,,68,-4,-120,,-111,86,-12,,,11,,,,,
,-4000,3,-871,,-454,-337,-314,,-294,155,-106,,-448,,-408,,,-1,,,,,
,-3000,2,-590,,-242,-178,-58,,-241,47,185,,176,88,94,,,4,,,,,
,-4000,25,-515,,-29,29,-144,,-35,148,183,,156,-43,84,,,,,,,,
,-3000,1,-1235,,-131,12,-291,,-126,116,52,,93,-76,119,,,,,,,,
,-3000,-23,-1260,,-150,-94,-266,,-137,185,-8,,66,-56,315,,,-1,,,,,
,-2000,,-693,,-225,-102,-133,,-49,-181,-28,,-62,17,218,,,,,,,,
,7000,1,-92,,-142,-136,-102,,-106,-487,-108,,342,333,92,,,1,,,,,
,3000,2,83,,303,84,-254,,157,113,179,,644,220,350,,,-3,,,,,
,-4000,19,-538,,34,22,373,,265,-62,5,,144,-12,-111,,,-11,,,,,
,-3000,-18,-207,,95,59,646,,189,-56,30,,-82,-33,-454,,,6,,,,,
,-3000,3,-1240,,3,-150,-28,,-108,22,-37,,174,-180,-308,,,,,,,,
,-2000,-1,-330,,127,125,-77,,95,69,-26,,-8,32,331,,,4,,,,,
,-1000,,145,,-441,-310,-541,,-117,110,-308,,-249,24,-59,,,4,,,,,
,,-1,-395,,-432,-455,-917,,-37,-42,-404,,-492,-54,-316,,,5,,,,,
,1000,1,-893,,-17,-278,-937,,218,68,-107,,198,144,-41,,,1,,,,,
,-1000,,-123,,18,-47,-238,,220,-55,180,,168,68,46,,,-7,,,,,
,1000,-1,-189,,-21,105,28,,26,107,110,,97,-78,-421,,,,,,,,
,-1000,4,-661,,-119,-36,405,,-241,82,55,,-88,-229,-20,,,,,,,,
,,-1,-322,,-77,-164,52,,-121,125,81,,-73,-153,-145,,,-1,,,,,
,,2,-298,,-146,-69,90,,-190,103,173,,-302,-65,-124,,,3,,,,,
,,2,-632,,-421,-185,-217,,-413,95,91,,-123,-48,-4,,,2,,,,,
,,-3,-542,,-765,-345,-160,,-586,-427,-101,,-193,-150,138,,,-2,,,,,
,,6,-260,,-158,-228,484,,-151,-601,-161,,138,2,-62,,,3,,,,,
,1000,,415,,258,-31,381,,256,-384,-136,,320,255,97,,,,,,,,
,1000,1,459,,226,328,-358,,569,99,54,,399,297,71,,,3,,,,,
,-2000,1,210,,463,606,310,,576,226,197,,209,63,73,,,-6,,,,,
,,-1,-58,,324,432,238,,87,126,242,,-111,-86,-20,,,1,,,,,
,,,-532,,-107,-17,-355,,-279,139,-104,,-354,-255,-143,,,-5,,,,,
,,,-454,,-247,-209,-65,,-230,502,-279,,-318,-159,-84,,,4,,,,,
,1000,,-211,,-488,-371,-231,,-135,121,-176,,-382,-20,14,,,8,,,,,
,,4,173,,-210,-278,-658,,-123,-154,-126,,-47,109,42,,,-11,,,,,
,4000,,-445,,3,-151,186,,-187,-159,-153,,103,10,-282,,,-1,,,,,
,8000,1,-228,,13,-131,122,,-169,-268,-22,,80,-150,-47,,,8,,,,,
,,,158,,42,172,539,,97,-97,125,,176,9,441,,,,,,,,
,-4000,,173,,329,521,774,,177,207,334,,268,199,481,,,-3,,,,,
,-4000,-1,-192,,326,242,-102,,23,313,194,,219,223,335,,,14,,,,,
,-3000,,-388,,-405,-133,-798,,-36,77,-118,,79,-212,-141,,,-11,,,,,
,-1000,-1,-83,,-552,-230,-550,,-77,68,-248,,-10,11,-353,,,-16,,,,,
,,1,209,,-14,-140,-382,,-286,-376,-95,,-46,175,-24,,,11,,,,,
,,,285,,293,9,582,,1,-217,137,,171,126,98,,,3,,,,,
,-1000,,121,,252,97,298,,348,5,34,,154,-6,-356,,,-11,,,,,
,1000,1,113,,222,251,292,,309,-8,-51,,280,196,-143,,,3,,,,,
,-1000,-1,113,,316,158,-82,,24,269,81,,373,105,304,,,14,,,,,
,,,-246,,129,-32,-177,,8,202,66,,22,-48,60,,,-9,,,,,
,,7,-370,,-398,-306,-40,,-221,124,-9,,-210,-202,-89,,,3,,,,,
,1000,,-187,,-523,-414,-506,,-203,-222,-208,,-100,-217,-316,,,7,,,,,
,4000,1,434,,144,-149,-309,,192,4,-17,,265,206,73,,,-15,,,,,
,-4000,1,348,,226,79,422,,105,-178,191,,168,293,274,,,,,,,,
,,3,-43,,195,240,242,,175,-31,86,,56,80,346,,,9,,,,,
,,1,-192,,80,249,197,,-129,167,81,,-144,-87,-18,,,-2,,,,,
,,-2,-314,,-356,-80,-257,,-271,371,-42,,-290,-68,-522,,,1,,,,,
,4000,4,-581,,-307,-308,-404,,-274,180,-168,,-178,-23,-219,,,-2,,,,,
,-3000,2,115,,68,-148,-272,,-45,43,-137,,-74,154,5,,,,,,,,
,-1000,-1,286,,245,-50,471,,180,-49,132,,207,429,200,,,,,,,,
,-1000,1,89,,-333,-227,345,,-41,-426,-71,,125,105,138,,,-4,,,,,
,1000,1,-333,,-358,-194,294,,-229,-514,-227,,-13,-333,-50,,,4,,,,,
,-1000,1,-4,,67,18,-297,,85,-120,-160,,105,-35,32,,,-3,,,,,
,6000,2,-441,,174,87,-674,,202,83,-82,,-81,30,-152,,,4,,,,,
,-4000,2,26,,137,207,333,,-3,107,63,,-166,185,50,,,-15,,,,,
,32000,5,353,,-118,62,382,,-262,362,107,,3,-31,-153,,,12,,,,,
,4000,-3,-444,,-45,-75,-219,,-78,244,143,,165,-11,135,,,1,,,,,
,-4000,2,-404,,-398,-304,-547,,-55,16,-13,,125,-54,55,,,-13,,,,,
,-3000,,195,,-352,-218,-10,,29,-167,-176,,-53,-211,-368,,,8,,,,,
,-3000,1,423,,288,-7,338,,204,-85,-38,,117,-142,-216,,,,,,,,
,-3000,4,293,,433,103,170,,196,-259,-1,,134,7,-219,,,4,,,,,
,-3000,-1,-748,,206,-50,-275,,48,-422,-165,,254,-93,106,,,13,,,,,
,-3000,2,-287,,-74,102,33,,94,-97,27,,310,-111,383,,,-2,,,,,
,-4000,,-136,,,86,144,,93,219,175,,-144,117,5,,,-8,,,,,
,-3000,12,274,,-362,-73,-374,,-146,-60,-28,,-168,16,86,,,-1,,,,,
,-4000,-12,266,,-266,-131,-320,,-356,-106,-172,,-237,-164,-358,,,-6,,,,,
,-3000,7,-149,,225,85,-25,,103,60,-190,,47,80,-383,,,6,,,,,
,-3000,,-367,,146,215,214,,146,23,-83,,37,34,-359,,,-9,,,,,
,-2000,2,147,,76,176,440,,-48,-9,-9,,-3,-68,-31,,,6,,,,,
,1000,,95,,-13,116,228,,-33,54,60,,479,67,12,,,17,,,,,
,,,286,,-84,-32,-242,,10,-55,73,,87,92,97,,,-13,,,,,
,-1000,4,99,,72,-92,-293,,151,-42,6,,16,293,335,,,-2,,,,,
,,-1,-451,,-2,-56,308,,37,102,55,,-44,-66,235,,,,,,,,
,1000,1,-619,,71,112,115,,-83,41,244,,-199,-152,-149,,,2,,,,,
,1000,-1,504,,447,129,85,,153,206,-162,,-279,,-72,,,5,,,,,
,-2000,14,767,,-130,-183,-631,,-28,36,-216,,-340,57,126,,,-7,,,,,
,4000,-9,115,,-79,-111,-174,,-299,-22,-89,,-157,55,93,,,-14,,,,,
,7000,2,17,,-348,-170,-15,,-308,77,-149,,-93,3,295,,,9,,,,,
,4000,1,-209,,-475,-113,290,,-147,209,94,,-13,-20,304,,,14,,,,,
,-3000,3,-56,,103,147,23,,20,92,197,,108,82,262,,,3,,,,,
,-3000,2,432,,368,270,162,,65,47,139,,343,64,-98,,,-5,,,,,
,-4000,-1,14,,159,167,412,,-13,-272,54,,176,51,-124,,,-5,,,,,
,-3000,3,-193,,230,20,-155,,136,28,-128,,-68,-177,-174,,,-12,,,,,
,-2000,,72,,207,103,-190,,382,128,97,,252,175,491,,,17,,,,,
,,3,-93,,-293,-102,-108,,32,-170,-93,,185,107,6,,,-9,,,,,
,1000,-2,-356,,-183,-241,-41,,-348,-133,-85,,-106,-30,-98,,,1,,,,,
,,5,201,,-134,-72,106,,-270,-267,156,,-207,-6,-117,,,6,,,,,
,,,239,,-177,-82,-685,,-15,-68,-152,,-262,-49,-19,,,1,,,,,
,,2,-78,,-181,-43,40,,1,16,-210,,-87,-159,-384,,,-12,,,,,
,-1000,-2,41,,28,90,-295,,170,159,-46,,-80,-260,-217,,,3,,,,,
,,5,-46,,-12,126,77,,132,-140,25,,-158,-126,4,,,6,,,,,
,1000,1,-339,,-2,119,419,,-60,-240,148,,201,-86,-60,,,-2,,,,,
,-1000,-1,-176,,97,42,-165,,211,153,14,,456,256,-8,,,-1,,,,,
,1000,2,188,,169,202,157,,308,253,269,,274,311,247,,,5,,,,,
,,6,538,,319,224,-70,,11,231,214,,-149,78,213,,,-1,,,,,
,-1000,-3,17,,182,96,549,,-171,190,129,,-224,17,149,,,6,,,,,
,5000,6,-2,,-151,1,595,,46,354,-22,,-108,47,62,,,-5,,,,,
,-3000,-3,-175,,-187,-207,-114,,-98,-121,-244,,214,-118,-154,,,2,,,,,
,-2000,4,-558,,-135,-278,-725,,-142,-276,-189,,-114,-313,-228,,,-15,,,,,
,1000,-2,,,115,-107,-318,,172,-276,-38,,311,135,-161,,,6,,,,,
,-1000,1,504,,114,109,477,,197,-226,130,,-39,31,44,,,15,,,,,
,,,-277,,279,396,-9,,228,111,243,,-142,-8,77,,,-7,,,,,
,3000,4,7,,279,272,179,,37,83,181,,-76,100,5,,,-14,,,,,
,-2000,11,1238,,-271,-28,281,,-38,292,83,,-35,-43,61,,,12,,,,,
,-1000,1,38,,-325,-174,-42,,-209,-18,-88,,-97,-7,-205,,,5,,,,,
,1000,-1,-54,,182,-45,-188,,-187,23,-15,,-304,30,-486,,,-1,,,,,
,8000,,-592,,-130,-116,35,,-242,-278,-235,,-54,-187,-339,,,-2,,,,,
,-3000,,-429,,-218,-80,-17,,-46,-289,-135,,238,37,26,,,-2,,,,,
,-3000,,509,,18,13,-53,,366,-103,78,,111,35,160,,,6,,,,,
,-2000,3,233,,67,197,343,,122,83,195,,-105,160,182,,,-10,,,,,
,-1000,-3,-145,,294,231,357,,65,153,284,,49,195,348,,,1,,,,,
,2000,,-108,,-60,-129,-276,,-167,224,28,,-207,-94,258,,,10,,,,,
,-2000,3,-35,,-197,-95,239,,-63,,34,,-35,24,-139,,,-4,,,,,
,,-3,485,,-323,-109,-643,,-278,21,-174,,5,-50,-105,,,-12,,,,,
,,-1,83,,-338,-241,-527,,-254,-83,-136,,-202,-207,-168,,,-2,,,,,
,1000,4,-114,,307,144,355,,173,177,123,,452,-22,82,,,2,,,,,
,-1000,,-280,,82,214,369,,264,210,57,,319,45,-25,,,3,,,,,
,3000,1,-217,,280,193,158,,188,48,97,,46,-8,98,,,,,,,,
,-2000,9,396,,253,92,347,,60,67,136,,342,58,264,,,8,,,,,
,-1000,-7,423,,205,186,60,,177,165,7,,144,74,44,,,-3,,,,,
,,,-61,,259,4,-307,,-8,138,-124,,-56,-130,-85,,,9,,,,,
,,2,215,,-137,33,300,,-59,229,20,,300,8,-11,,,-7,,,,,
,10000,2,-57,,-583,-368,-290,,-58,-242,-185,,75,-15,-55,,,-11,,,,,
,-3000,3,-436,,-366,-402,-506,,-104,-290,-196,,-103,45,-2,,,,,,,,
,-3000,-3,63,,-14,-131,-231,,62,45,-9,,-127,101,-48,,,11,,,,,
,-2000,13,225,,320,61,-32,,-31,-138,60,,-108,11,-124,,,-5,,,,,
39,235000,156034,-599,,-789,-99,-196,,-312,694,-8,,-888,-1157,-871,,,-9,,,,,
,-4000,-2,391,,75,346,328,,-135,-112,128,,-161,105,234,,,1,,,,,
,-3000,5,389,,35,144,197,,84,143,89,,149,138,-108,,,2,,,,,
,-4000,,-98,,-86,-83,-6,,-14,-32,51,,228,361,409,,,6,,,,,
,-3000,1,-338,,-117,-391,-686,,-38,-160,-142,,-33,79,252,,,7,,,,,
,-3000,1,-62,,126,-184,-190,,84,150,-54,,-35,124,14,,,,,,,,
,-3000,,-262,,4,-101,-51,,-81,-245,98,,-237,-29,-91,,,-4,,,,,
,-4000,4,-161,,-120,-169,16,,-70,-208,-83,,-135,-279,-271,,,-3,,,,,
,-3000,-1,-86,,-38,-156,42,,-7,-204,-19,,-337,-93,-119,,,3,,,,,
,-4000,1,-433,,-246,-170,-867,,-133,-252,-170,,-52,37,-124,,,-1,,,,,
,-4000,1,150,,-272,-112,133,,-63,90,40,,414,35,-69,,,-4,,,,,
,-3000,3,6,,44,-152,584,,-119,-4,44,,51,-171,-117,,,-11,,,,,
,-4000,-1,-241,,-138,-135,-31,,-258,-229,-162,,-228,-199,-32,,,7,,,,,
,-3000,2,47,,-17,43,384,,206,61,168,,139,15,-80,,,4,,,,,
,-3000,4,307,,309,119,247,,305,74,177,,133,190,-1,,,8,,,,,
,-3000,1,46,,183,73,157,,139,12,-84,,-112,31,-107,,,-9,,,,,
,-4000,7,159,,128,37,-428,,-47,275,-34,,-289,-79,133,,,-8,,,,,
,-3000,-7,-12,,-89,,-737,,-173,143,-52,,-326,-283,99,,,-2,,,,,
,-4000,10,-311,,-67,78,439,,-32,33,-128,,-6,-109,-172,,,10,,,,,
,-3000,-6,231,,-102,37,267,,-6,-346,-221,,159,25,-384,,,-3,,,,,
,-3000,9,325,,121,24,-281,,211,-255,-89,,101,90,-258,,,4,,,,,
,-4000,4,475,,83,202,96,,119,325,139,,96,301,330,,,5,,,,,
,-3000,-9,92,,363,236,432,,33,-21,242,,265,14,539,,,1,,,,,
,-4000,-1,-552,,385,13,101,,-107,-165,20,,-30,-9,198,,,2,,,,,
,-1000,2,-19,,256,240,155,,154,108,120,,-40,166,-107,,,-1,,,,,
,-1000,,410,,-329,269,156,,30,136,28,,-120,130,-227,,,,,,,,
,2000,3,639,,-386,114,214,,-93,287,57,,21,87,-13,,,-2,,,,,
,-2000,2,277,,-199,18,-502,,136,62,-126,,133,18,-11,,,-5,,,,,
,,1,-275,,64,5,53,,18,20,-42,,-19,-93,32,,,-4,,,,,
,,,-122,,134,-34,-279,,-271,-408,-83,,-98,-85,102,,,4,,,,,
,3000,3,350,,368,329,-1,,108,-22,55,,-29,84,410,,,6,,,,,
,-2000,-1,172,,327,189,488,,145,132,198,,-11,240,360,,,-12,,,,,
,-1000,2,-274,,-107,-221,130,,-160,24,-57,,-282,-41,-54,,,18,,,,,
,2000,-2,-613,,-335,-379,72,,-148,165,8,,-203,60,327,,,-3,,,,,
,-1000,5,-326,,-330,-393,-714,,-159,7,-138,,-29,-153,31,,,2,,,,,
,-1000,1,-123,,-43,-115,-183,,170,-23,16,,129,-37,-174,,,-4,,,,,
,,2,364,,296,257,177,,377,-214,264,,347,247,330,,,-6,,,,,
,,-2,238,,67,103,-126,,83,-93,52,,53,208,169,,,5,,,,,
,1000,4,79,,-25,-3,508,,-90,-175,-150,,-118,45,-49,,,1,,,,,
,-1000,1,-5,,60,12,71,,-71,-77,-170,,-335,-157,-373,,,-5,,,,,
,6000,2,160,,-93,63,-111,,-147,225,-103,,-223,29,-92,,,-6,,,,,
,,3,-134,,-68,-27,27,,-72,323,-41,,-197,-230,-251,,,4,,,,,
,-4000,11,-133,,142,-79,26,,-69,119,-73,,-123,-155,-269,,,-11,,,,,
,6000,-3,-680,,-176,-251,-312,,-192,-116,-196,,-214,-135,-301,,,8,,,,,
,-3000,-5,-364,,-468,-361,-329,,-251,-79,-140,,-615,-230,-179,,,12,,,,,
,-3000,1,206,,-212,-288,-218,,-243,53,-95,,-262,-161,-176,,,-2,,,,,
,-1000,3,545,,84,24,168,,47,-193,206,,360,244,265,,,2,,,,,
,,,712,,194,376,306,,207,-272,417,,350,210,320,,,-3,,,,,
,,13,110,,457,358,273,,61,-203,178,,259,57,195,,,3,,,,,
,-1000,-15,-129,,597,341,576,,260,118,237,,198,-3,177,,,-7,,,,,
,,1,302,,393,506,632,,384,318,257,,312,93,53,,,,,,,,
,,14,61,,-73,35,-284,,44,235,-287,,66,-73,-100,,,7,,,,,
,,-1,-411,,-135,-205,168,,-191,-111,-270,,35,-136,-4,,,-8,,,,,
,,,220,,-124,-178,-193,,168,-261,-503,,158,-40,-15,,,-1,,,,,
,,-1,63,,-494,-150,-521,,-54,-225,-239,,-66,-58,23,,,4,,,,,
,,,-191,,-349,-38,-67,,-128,219,109,,-444,53,28,,,-1,,,,,
,1000,,284,,180,26,280,,102,447,184,,232,-13,74,,,-3,,,,,
,-1000,10,341,,50,-21,-131,,9,238,117,,325,-57,54,,,1,,,,,
,,-8,-21,,275,71,-183,,270,70,171,,39,127,356,,,-2,,,,,
,,8,-46,,221,113,-131,,35,-182,161,,-107,115,245,,,9,,,,,
,1000,,418,,-6,222,179,,-36,-441,162,,-253,50,-3,,,8,,,,,
,-1000,,-443,,-127,-66,212,,-259,-281,-153,,-224,-95,-10,,,-8,,,,,
,1000,,-675,,-205,-328,-135,,-329,48,-142,,-385,-157,2,,,-6,,,,,
,-1000,-2,-232,,-240,-297,-269,,-133,-87,-115,,-403,-191,172,,,-3,,,,,
,2000,1,-67,,-203,-222,-325,,-33,-361,16,,-126,96,-89,,,-4,,,,,
,,2,-471,,-293,-327,172,,-193,-281,10,,21,21,-135,,,4,,,,,
,-2000,2,21,,-149,-168,-159,,-255,155,53,,83,-22,266,,,-3,,,,,
,,-2,161,,-105,-112,-859,,-134,47,-131,,305,95,-98,,,7,,,,,
,1000,1,24,,39,-63,-49,,46,-225,-27,,435,174,4,,,8,,,,,
,1000,9,-380,,-92,-122,363,,115,-10,-167,,69,91,-87,,,-6,,,,,
,1000,2,33,,-223,-115,-97,,114,-13,-132,,248,41,-116,,,-8,,,,,
,-1000,-7,141,,278,220,174,,383,271,79,,187,-61,-156,,,2,,,,,
,1000,1,357,,238,182,811,,10,33,12,,-33,-182,-178,,,7,,,,,
,-3000,5,454,,221,-42,-114,,-125,-144,-27,,125,-35,-353,,,1,,,,,
,,-7,-51,,-222,62,-453,,175,46,40,,8,25,63,,,7,,,,,
,,5,-381,,32,363,3,,103,49,195,,127,102,75,,,-13,,,,,
,,,-78,,461,364,450,,-16,-194,187,,-102,-35,-125,,,-2,,,,,
,1000,1,568,,118,116,321,,-38,33,-48,,-329,18,231,,,-2,,,,,
,,1,240,,-490,-227,-66,,-182,39,-107,,-114,74,22,,,,,,,,
,-1000,2,-240,,-329,-155,-38,,-237,6,-14,,133,91,-41,,,12,,,,,
,2000,1,-371,,-187,-129,-368,,-143,-211,-245,,-9,61,-179,,,-1,,,,,
,-2000,6,-16,,-86,-80,-291,,-236,132,-119,,-155,-9,-68,,,3,,,,,
,,-2,-270,,-190,-29,-243,,-102,117,-17,,-20,-144,-55,,,-2,,,,,
,,,80,,127,87,-130,,72,284,-191,,-189,-329,-526,,,-14,,,,,
,2000,2,-161,,222,-3,-61,,9,-13,-129,,-42,-169,-24,,,9,,,,,
,-2000,24,-78,,173,-165,138,,-17,-437,-228,,91,-53,-52,,,-7,,,,,
,,-23,68,,86,-10,233,,223,-171,109,,99,30,10,,,7,,,,,
,1000,3,550,,33,216,-76,,418,292,281,,145,108,221,,,-5,,,,,
,-1000,1,315,,-347,58,-174,,62,253,-12,,-227,62,153,,,7,,,,,
,,,-28,,-18,-3,-119,,44,406,69,,147,91,175,,,-5,,,,,
,1000,-2,-553,,-179,-126,-110,,-250,-44,-36,,19,-66,-254,,,-2,,,,,
,-1000,7,-107,,54,8,-142,,-215,-81,65,,-281,101,-490,,,2,,,,,
,6000,,123,,98,-145,121,,-189,-22,-53,,-97,-106,-428,,,4,,,,,
,-4000,,-428,,-179,-216,-174,,-179,-98,,,-101,-179,363,,,9,,,,,
,-1000,3,-733,,-365,-212,201,,-274,-106,98,,-157,-136,147,,,-8,,,,,
,4000,1,448,,-9,21,408,,-149,-140,252,,-130,41,124,,,-9,,,,,
,-4000,1,848,,431,254,567,,186,-243,288,,224,210,474,,,,,,,,
,-1000,,225,,837,659,633,,536,1,482,,631,251,433,,,8,,,,,
,,3,496,,567,611,520,,422,482,426,,333,349,37,,,-3,,,,,
,1000,1,-126,,153,160,159,,193,411,-35,,86,-125,-525,,,,,,,,
,-1000,1,-31,,96,-117,-221,,-124,362,-68,,-174,-161,-282,,,14,,,,,
,,,102,,-344,-135,-610,,-169,329,-252,,-127,-77,-138,,,-5,,,,,
,,-2,6,,-510,-242,-538,,-134,59,-455,,-124,-164,-260,,,-11,,,,,
,1000,6,-479,,-662,-250,184,,-362,-94,-364,,-313,-282,-503,,,-4,,,,,
,4000,,-336,,131,215,56,,173,247,136,,-133,2,-343,,,8,,,,,
,-3000,,-276,,2,127,-13,,144,143,13,,-102,50,-123,,,10,,,,,
,-2000,3,-52,,-36,-162,-157,,-204,-121,-304,,56,26,305,,,-7,,,,,
,,1,-374,,-27,-298,-704,,-62,-453,-353,,23,21,194,,,-10,,,,,
,1000,1,-705,,-228,-475,-279,,-196,-584,-299,,156,35,-26,,,-11,,,,,
,13000,,354,,60,-80,266,,-78,-138,35,,356,243,-148,,,19,,,,,
,-2000,3,459,,134,53,-381,,201,-218,74,,113,117,4,,,7,,,,,
,-3000,,489,,228,238,-25,,142,-50,292,,-163,119,484,,,-7,,,,,
,-4000,1,375,,148,212,376,,-47,84,422,,-75,71,343,,,9,,,,,
,-3000,10,272,,84,87,129,,-92,198,235,,5,29,325,,,-5,,,,,
,4000,6,177,,-35,-92,-13,,21,27,55,,208,-41,-110,,,-2,,,,,
,-1000,-12,-795,,-498,-274,58,,-81,-128,-110,,-181,-226,-218,,,-3,,,,,
,,6,-1056,,-392,-401,-377,,76,29,-182,,-227,-400,-299,,,-3,,,,,
,17000,-4,-360,,-68,-286,-285,,258,165,-201,,16,-273,-463,,,6,,,,,
,-3000,1,375,,-176,-41,168,,72,150,-60,,-79,-130,-195,,,2,,,,,
,-4000,2,-91,,157,-44,-90,,20,97,-122,,-244,-61,-17,,,-13,,,,,
,-2000,2,-287,,256,152,159,,-15,351,116,,-11,-21,-17,,,-1,,,,,
,-4000,-3,-195,,-177,-161,205,,-410,-80,-167,,-17,-65,-98,,,-8,,,,,
,-3000,6,246,,-327,-223,-369,,-439,-13,-227,,-27,-112,65,,,12,,,,,
,-4000,10,584,,-511,-131,-390,,-161,-190,-77,,-206,53,-143,,,-3,,,,,
,-2000,-8,156,,-197,74,-70,,68,-118,42,,-179,229,-192,,,11,,,,,
,1000,3,41,,434,433,399,,173,-30,120,,301,234,150,,,3,,,,,
,,1,230,,433,376,471,,74,-50,181,,179,73,259,,,-6,,,,,
,-1000,,276,,557,447,640,,381,93,370,,200,248,456,,,-7,,,,,
,3000,3,82,,235,263,357,,396,-121,192,,360,115,209,,,-1,,,,,
,-2000,1,-97,,-145,48,234,,193,-146,-46,,410,62,-194,,,-5,,,,,
,-1000,2,-313,,320,220,546,,257,206,173,,150,-49,17,,,8,,,,,
,,-1,550,,321,218,247,,383,258,273,,63,-115,538,,,2,,,,,
,,-2,1260,,-32,54,290,,38,94,204,,347,175,299,,,2,,,,,
,,4,559,,-15,131,-75,,22,99,185,,123,23,-57,,,5,,,,,
,1000,3,289,,54,172,-520,,106,185,178,,109,39,117,,,-9,,,,,
,,1,-586,,-17,130,-295,,-15,114,39,,-307,49,-308,,,5,,,,,
,,2,-616,,-23,-95,-133,,-129,-159,-189,,-317,-117,-299,,,2,,,,,
,-1000,1,-53,,45,-103,72,,-306,-240,-285,,-79,-152,-212,,,7,,,,,
,1000,1,-183,,273,-14,-226,,81,93,-280,,313,34,-318,,,-10,,,,,
,-1000,,-150,,-85,-71,-205,,133,124,-71,,-67,118,-83,,,-12,,,,,
,,4,-308,,-543,-200,66,,-350,-164,-218,,-273,-90,-262,,,-2,,,,,
,,4,-619,,-755,-629,-113,,-469,-426,-508,,-239,-197,-306,,,5,,,,,
,2000,-3,-215,,-93,-334,-293,,-106,-138,-310,,-260,-113,-339,,,12,,,,,
,1000,,-436,,46,-36,-216,,-44,56,-76,,-237,-79,-28,,,-3,,,,,
,7000,5,141,,68,157,-90,,-60,-15,198,,-16,28,268,,,-7,,,,,
,-4000,,390,,-31,55,304,,96,-72,195,,71,-79,274,,,,,,,,
,1000,9,409,,314,55,316,,289,-270,245,,71,107,259,,,2,,,,,
,-3000,-8,-141,,131,-53,-11,,-29,-330,82,,-122,79,-214,,,4,,,,,
,-3000,2,-787,,-287,-307,-83,,-168,-100,89,,-72,-46,71,,,8,,,,,
34,202000,136042,2033,,1163,1009,477,,903,995,454,,1404,841,1657,,,,,,,,
,-3000,,-156,,-316,-111,-190,,-125,-40,-33,,-45,15,-130,,,-3,,,,,
,-4000,,-163,,-335,-88,-420,,-201,-275,-110,,-251,129,-210,,,-6,,,,,
,-3000,4,47,,-76,-28,-295,,-80,-25,-130,,-1,113,-129,,,2,,,,,
,-3000,1,177,,208,36,318,,75,370,40,,92,-98,-51,,,8,,,,,
,-4000,,129,,235,222,339,,63,494,125,,80,-29,277,,,-2,,,,,
,-3000,1,-204,,220,133,66,,134,98,-24,,-174,-253,-105,,,-3,,,,,
,-3000,,146,,260,351,193,,312,59,189,,-15,-75,-57,,,3,,,,,
,-3000,3,815,,-70,49,206,,73,-249,10,,175,46,-63,,,-10,,,,,
,-4000,2,-569,,-437,-308,-121,,-62,-405,-56,,128,-64,-294,,,,,,,,
,-3000,,-306,,-67,-303,-118,,-74,32,-147,,-160,46,-228,,,5,,,,,
,-3000,,207,,80,137,-17,,206,165,224,,302,245,45,,,-8,,,,,
,-3000,3,297,,488,369,52,,157,106,206,,239,55,266,,,7,,,,,
,-4000,,126,,372,314,357,,-90,511,-32,,-97,60,343,,,3,,,,,
,-3000,3,58,,-392,19,310,,-238,234,-142,,77,-51,-47,,,-7,,,,,
,-3000,-1,564,,-338,-315,-575,,-301,-89,-206,,138,-109,-268,,,10,,,,,
,-3000,10,-434,,-286,-524,-630,,-442,-241,-241,,-377,-271,-684,,,-11,,,,,
,-4000,2,-836,,-224,-385,60,,-234,-349,-198,,-250,-112,-299,,,2,,,,,
,-3000,-1,-517,,-116,-235,6,,-82,-232,-17,,-110,60,22,,,6,,,,,
,-3000,-6,-399,,-222,-178,-371,,90,46,-116,,-16,-105,22,,,-2,,,,,
,-3000,3,323,,134,1,-186,,162,214,-24,,202,-70,14,,,-1,,,,,
,-2000,-1,-36,,126,147,393,,167,93,-76,,159,-111,6,,,-1,,,,,
,1000,2,291,,134,221,257,,133,-85,220,,110,179,213,,,,,,,,
,1000,3,646,,110,105,-35,,45,-244,345,,85,28,118,,,3,,,,,
,-1000,12,147,,608,320,684,,410,-91,384,,330,67,265,,,2,,,,,
,3000,-11,15,,81,403,443,,378,-107,359,,247,19,292,,,-7,,,,,
,-3000,1,208,,-221,262,-63,,-88,79,156,,-351,7,-173,,,4,,,,,
,-1000,-1,-17,,-163,-37,-237,,-294,268,-80,,-620,-287,-239,,,,,,,,
,1000,5,-481,,110,-51,-9,,-90,248,-93,,-148,-289,19,,,-7,,,,,
,-1000,,-43,,484,91,224,,326,81,44,,95,176,-115,,,-1,,,,,
,2000,1,366,,279,126,417,,361,,93,,83,434,-228,,,,,,,,
,-2000,,92,,-95,-83,-242,,-46,45,-172,,36,105,-240,,,-4,,,,,
,1000,3,94,,-69,-74,-405,,-152,-153,-298,,182,30,89,,,9,,,,,
,1000,,-197,,-161,-228,-183,,-91,14,-347,,-204,-33,-18,,,3,,,,,
,-1000,1,-722,,-297,-395,-177,,-259,-39,-211,,-285,-124,-345,,,-15,,,,,
,,1,147,,60,-63,-73,,30,77,-7,,183,58,231,,,12,,,,,
,,2,210,,193,189,-73,,136,-44,131,,111,288,147,,,8,,,,,
,2000,2,387,,-133,104,154,,-201,-134,108,,55,43,-237,,,-2,,,,,
,1000,17,265,,332,302,511,,69,338,244,,206,101,30,,,2,,,,,
,-3000,-16,141,,218,75,-29,,170,109,-61,,45,-199,-28,,,-3,,,,,
,10000,3,609,,,-11,-142,,66,-34,-282,,-33,-340,-73,,,-3,,,,,
,-3000,1,41,,-260,60,229,,-129,63,-36,,-262,-149,-118,,,-4,,,,,
,-4000,1,-610,,-178,-6,-308,,-18,-247,139,,-99,14,10,,,-2,,,,,
,-3000,8,-608,,120,115,227,,140,-154,346,,130,71,315,,,-6,,,,,
,-1000,-5,47,,213,196,262,,158,47,385,,79,320,402,,,9,,,,,
,4000,1,254,,185,-173,-61,,170,278,101,,79,46,61,,,-1,,,,,
,-3000,,429,,-20,-85,253,,72,276,-86,,-122,54,-63,,,,,,,,
,,3,-8,,-177,-135,-45,,-195,-231,-121,,-253,-155,-238,,,-5,,,,,
,,1,-363,,-116,-151,-530,,-228,-239,-269,,-277,-265,-484,,,10,,,,,
,4000,2,-256,,-39,-71,-359,,-32,-48,-254,,-28,-133,-50,,,3,,,,,
,1000,-1,-302,,164,138,63,,266,105,145,,158,23,288,,,-5,,,,,
,-4000,-1,-130,,-268,-53,-15,,-52,-30,91,,-16,63,13,,,2,,,,,
,4000,3,214,,59,64,347,,91,212,110,,-96,69,161,,,,,,,,
,-3000,3,-50,,-50,26,-412,,53,22,6,,-193,-62,116,,,-4,,,,,
,-2000,8,-249,,47,-140,-235,,-63,-253,-131,,-142,-173,209,,,-9,,,,,
,,-7,10,,338,24,239,,82,219,82,,46,5,86,,,-5,,,,,
,1000,1,413,,69,153,890,,-212,321,271,,188,-93,176,,,10,,,,,
,-1000,1,189,,-376,-12,27,,-255,-241,-18,,-368,-12,-12,,,12,,,,,
,1000,2,-424,,144,-178,-38,,-85,-178,-79,,-195,-65,-202,,,-6,,,,,
,-2000,2,-524,,105,-133,-235,,87,-250,-112,,-32,-132,68,,,11,,,,,
,2000,2,477,,-123,52,-402,,221,53,43,,151,150,135,,,-3,,,,,
,-1000,,1004,,2,252,432,,40,300,217,,396,195,-121,,,-10,,,,,
,4000,1,275,,105,238,478,,33,248,270,,154,60,-264,,,-6,,,,,
,,,-305,,51,-22,-303,,93,-159,-72,,-90,46,-221,,,1,,,,,
,-4000,1,-341,,116,-77,-131,,-116,25,-286,,-28,-53,-25,,,14,,,,,
,5000,1,-219,,-66,-292,-314,,-345,173,-568,,-10,-165,-130,,,,,,,,
,-3000,6,-495,,-499,-451,-808,,-419,-290,-507,,-311,-219,-169,,,8,,,,,
,-2000,4,-281,,-455,-308,-152,,-14,-310,-210,,-290,-139,246,,,-5,,,,,
,,-4,-40,,-94,-170,-197,,28,-190,-123,,164,32,424,,,-10,,,,,
,2000,-1,-215,,121,-131,192,,47,-15,88,,230,109,130,,,-4,,,,,
,-2000,7,-650,,139,-55,158,,109,105,98,,257,68,-122,,,-4,,,,,
,,-5,-35,,16,107,572,,16,163,163,,-60,-19,-234,,,7,,,,,
,,4,811,,-35,100,107,,-132,-31,124,,-62,-5,-44,,,3,,,,,
,,-1,140,,10,-6,-613,,-175,216,85,,-181,-126,-131,,,,,,,,
,,1,-366,,144,74,-186,,5,99,174,,-97,51,-250,,,5,,,,,
,,2,282,,-259,55,121,,212,-27,262,,57,337,200,,,-11,,,,,
,,2,413,,-255,93,214,,88,107,130,,-27,9,210,,,2,,,,,
,-1000,-1,-357,,172,74,115,,-133,15,43,,-315,10,-75,,,1,,,,,
,,3,-535,,143,-71,102,,-100,-370,-104,,-291,-224,-287,,,-12,,,,,
,1000,,117,,163,66,423,,329,-35,19,,292,-40,-1,,,-4,,,,,
,3000,,893,,68,22,-109,,257,197,121,,201,168,478,,,13,,,,,
,1000,3,330,,-122,-49,157,,84,14,161,,3,202,360,,,3,,,,,
,-3000,-1,-312,,185,150,460,,-8,76,22,,-12,123,-27,,,4,,,,,
,1000,9,-470,,-198,-61,-68,,-360,82,-152,,-320,-143,-205,,,-4,,,,,
,-2000,2,-508,,-19,-179,-611,,-407,91,-358,,-291,-332,-247,,,-2,,,,,
,,-11,-292,,55,109,98,,-107,35,-158,,271,-46,143,,,3,,,,,
,-1000,6,467,,-28,-28,-199,,-71,164,-87,,-200,85,-131,,,-9,,,,,
,1000,,741,,116,-76,-176,,128,-1,1,,-143,26,-360,,,17,,,,,
,2000,1,-18,,130,-107,-385,,112,-123,-105,,44,109,-204,,,1,,,,,
,-1000,9,-623,,-56,-233,-58,,151,-427,-215,,-114,-98,104,,,-5,,,,,
,11000,-8,73,,-341,-139,-109,,88,-230,-20,,231,-6,98,,,4,,,,,
,,10,-68,,-160,-2,-286,,69,137,36,,139,-47,234,,,-13,,,,,
,-4000,-6,-160,,142,258,251,,125,-332,143,,153,144,280,,,4,,,,,
,-3000,1,46,,-100,162,-35,,-3,-338,42,,69,47,-10,,,7,,,,,
,-3000,5,9,,452,135,342,,-64,4,146,,105,76,70,,,-9,,,,,
,-2000,-3,411,,170,-22,-18,,-175,199,63,,288,-202,-195,,,13,,,,,
,1000,,306,,12,78,450,,-233,315,52,,200,-128,15,,,-5,,,,,
,1000,2,42,,-85,149,-233,,37,409,114,,182,129,25,,,3,,,,,
,-2000,1,-257,,35,95,-277,,219,344,143,,13,111,-116,,,-9,,,,,
,-1000,,-382,,-185,-132,-284,,68,-216,-155,,-192,-97,194,,,-18,,,,,
,1000,2,-130,,-114,-348,4,,-77,-313,-367,,-137,-181,43,,,5,,,,,
,,,-117,,156,-129,105,,37,-31,1,,138,117,-123,,,19,,,,,
,,2,54,,-39,14,-189,,-30,-110,41,,191,171,-362,,,5,,,,,
,-1000,,415,,-163,-5,189,,-207,-147,35,,-227,30,-91,,,-9,,,,,
,,3,63,,80,31,465,,-24,216,-37,,-267,-43,86,,,-7,,,,,
,6000,-1,188,,202,188,-103,,205,231,27,,-96,25,154,,,1,,,,,
,-4000,3,99,,248,481,649,,400,347,323,,173,231,574,,,9,,,,,
,1000,-3,43,,116,174,-27,,195,-7,214,,-13,81,211,,,-4,,,,,
,-2000,11,-165,,75,-78,21,,-45,-198,-154,,-183,,115,,,10,,,,,
,-1000,-3,-73,,-165,-228,76,,-91,49,-231,,186,-69,-218,,,-3,,,,,
,,,-160,,-322,-315,-746,,-130,-92,-246,,282,-71,-112,,,-15,,,,,
,1000,,-442,,-236,-205,20,,-272,20,-76,,-96,25,-200,,,13,,,,,
,4000,-3,45,,-207,-115,-192,,-256,-231,113,,-148,120,-119,,,,,,,,
,-4000,6,314,,-52,-102,-18,,38,-238,-65,,30,116,67,,,-2,,,,,
,,1,247,,30,-87,-3,,-30,-50,24,,306,27,187,,,-4,,,,,
,2000,,326,,169,306,84,,247,123,367,,484,176,127,,,1,,,,,
,4000,12,257,,94,538,327,,319,119,246,,-48,89,-80,,,4,,,,,
,4000,-8,260,,239,305,387,,-26,325,9,,-533,-328,-152,,,-9,,,,,
,-3000,1,-180,,145,13,133,,-185,298,-6,,-143,-234,55,,,-2,,,,,
,-3000,,-236,,-16,-54,114,,-125,122,32,,15,-26,161,,,14,,,,,
,-4000,5,-369,,-153,-291,-259,,-239,-45,-153,,-149,-154,-381,,,-7,,,,,
,,7,-272,,-219,-178,116,,-58,-105,-204,,-53,-211,-507,,,-11,,,,,
,,-9,-164,,50,58,-76,,117,132,28,,85,125,22,,,5,,,,,
,-1000,2,-334,,160,21,-46,,178,-16,61,,385,149,195,,,3,,,,,
,1000,,856,,151,304,331,,275,-92,213,,349,244,231,,,3,,,,,
,,-1,1076,,64,305,-168,,200,44,343,,374,312,427,,,3,,,,,
,,5,281,,201,43,-269,,104,90,17,,-90,-21,267,,,-6,,,,,
,2000,1,-177,,-93,-113,240,,109,-116,-87,,-246,-189,-442,,,8,,,,,
,-3000,10,-147,,-63,-137,-266,,217,-148,-136,,-2,-113,-379,,,-1,,,,,
,2000,-9,-416,,113,-94,-111,,3,100,-247,,19,8,-163,,,-14,,,,,
,-1000,1,-420,,-44,-100,-278,,-254,-74,-228,,-52,53,85,,,-2,,,,,
,,3,411,,-6,89,235,,-288,54,-103,,-322,-151,-405,,,7,,,,,
,,,173,,137,254,128,,-7,109,168,,2,129,247,,,,,,,,
,3000,4,-263,,-31,142,577,,40,130,15,,278,265,632,,,6,,,,,
,-3000,7,-161,,-174,-107,-261,,-251,-23,-260,,170,123,-132,,,3,,,,,
,,-6,186,,80,-139,-490,,-28,116,-216,,22,-74,-138,,,-2,,,,,
,,,432,,267,142,90,,347,111,32,,-35,-26,254,,,-2,,,,,
,,3,-7,,250,249,-92,,403,88,216,,87,109,-11,,,-8,,,,,
,1000,2,18,,192,50,-2,,277,-107,78,,273,-20,-307,,,14,,,,,
,-1000,,-458,,-26,-167,550,,131,-25,3,,-180,109,-273,,,-2,,,,,
,4000,,-921,,-181,-275,92,,-70,-213,-122,,-117,-178,-156,,,3,,,,,
,-3000,3,-127,,-909,-530,-857,,-424,-195,-283,,-138,-163,-199,,,-5,,,,,
,1000,-1,395,,-491,-224,-873,,-247,,-3,,-269,-26,40,,,-1,,,,,
,-1000,1,-490,,91,-16,195,,-168,2,130,,-63,-50,-26,,,2,,,,,
,,,482,,203,293,807,,-12,139,353,,78,86,111,,,-4,,,,,
36,213000,144044,-175,,-156,-111,-240,,-284,117,-485,,-575,85,111,,,1,,,,,
,-3000,1,323,,-487,-332,-338,,-143,-76,-67,,-112,-44,218,,,1,,,,,
,-3000,,541,,-8,-6,63,,133,23,62,,20,168,372,,,-3,,,,,
,-4000,3,-203,,349,181,186,,82,217,157,,-141,246,306,,,6,,,,,
,-3000,10,-283,,-4,188,241,,-128,-17,314,,72,14,353,,,-7,,,,,
,-3000,-8,676,,644,478,536,,115,-32,365,,281,50,126,,,-5,,,,,
,-3000,,221,,438,363,410,,118,80,62,,230,-22,275,,,4,,,,,
,-4000,,438,,-396,-117,-598,,13,158,-241,,25,-85,-205,,,4,,,,,
,-3000,4,-240,,-455,-296,-624,,-276,-28,-244,,144,105,-71,,,-9,,,,,
,-3000,,-969,,-498,-497,-377,,-447,-425,-381,,-138,-265,-235,,,9,,,,,
,-3000,1,-209,,-616,-422,-277,,-176,-364,-327,,-401,-224,-280,,,8,,,,,
,-4000,,358,,12,-110,219,,23,-41,-89,,-140,87,-9,,,-8,,,,,
,-3000,,-312,,133,-75,-268,,11,5,-188,,-148,-179,-194,,,-2,,,,,
,-4000,5,-120,,132,-95,-213,,-23,-125,-126,,169,-149,-175,,,4,,,,,
,-2000,-1,-51,,40,81,195,,95,-178,17,,81,92,143,,,,,,,,
,-4000,1,586,,271,284,583,,290,7,393,,291,62,447,,,2,,,,,
,-3000,-2,186,,530,430,699,,162,223,482,,477,321,304,,,-5,,,,,
,-4000,5,6,,475,231,-322,,80,321,141,,194,202,107,,,5,,,,,
,-3000,3,180,,-55,-16,-516,,35,207,-23,,121,48,-27,,,-9,,,,,
,-3000,-3,-316,,-286,-140,-104,,-280,28,-63,,-131,-43,-84,,,-5,,,,,
,-3000,1,-703,,-234,-119,170,,-249,-119,-136,,-343,-204,-492,,,15,,,,,
,-4000,1,172,,-147,7,-84,,-65,218,-93,,-172,-60,-395,,,-3,,,,,
,-1000,1,9,,-19,10,-155,,52,282,-93,,-282,-216,100,,,-8,,,,,
,,2,-753,,-427,-110,-286,,-123,-187,-157,,-313,-265,-138,,,4,,,,,
,,,-66,,-64,100,400,,145,10,-85,,10,-39,-470,,,-1,,,,,
,5000,1,870,,573,353,700,,408,-8,139,,120,180,128,,,3,,,,,
,-4000,-1,421,,224,124,237,,25,-189,176,,115,234,227,,,6,,,,,
,-1000,5,-172,,-404,-179,-172,,15,-226,-34,,285,123,-132,,,-6,,,,,
,,,33,,-165,-315,-290,,-326,-34,-98,,-104,-245,-105,,,-3,,,,,
,,1,70,,84,-263,-565,,55,55,-225,,-59,-207,-208,,,-8,,,,,
,-1000,-3,-120,,-336,-152,41,,-66,5,-90,,52,-65,-217,,,-2,,,,,
,,6,-515,,-244,-36,266,,16,22,117,,115,20,105,,,5,,,,,
,1000,,-240,,-23,-112,-449,,109,55,-24,,42,-25,94,,,7,,,,,
,,1,-364,,-65,-159,-426,,-35,30,-64,,-13,64,-52,,,5,,,,,
,1000,1,208,,161,209,253,,62,72,111,,-32,125,10,,,,,,,,
,3000,,31,,162,223,611,,-25,23,196,,-200,68,186,,,4,,,,,
,-3000,4,-144,,-52,93,399,,-143,-39,237,,97,44,575,,,,,,,,
,-1000,1,217,,-141,-76,-583,,-407,-146,-253,,-108,-85,36,,,-6,,,,,
,9000,,27,,43,51,-39,,13,-112,-123,,-143,21,-171,,,3,,,,,
,-3000,,110,,115,124,321,,379,-204,63,,269,190,12,,,5,,,,,
,-3000,4,35,,256,62,-90,,323,-167,-44,,251,305,313,,,-7,,,,,
,-4000,4,207,,-48,-165,77,,62,-132,-192,,-257,15,-38,,,-14,,,,,
,1000,-4,41,,-377,-407,-496,,-201,-14,-226,,-177,-338,-281,,,3,,,,,
,,,188,,-277,-244,-239,,-222,-41,-53,,-21,-207,-201,,,5,,,,,
,1000,-1,-817,,-141,-164,-71,,-245,19,-58,,-173,-222,136,,,2,,,,,
,-1000,4,-284,,59,7,43,,25,-66,-52,,-157,-175,-54,,,,,,,,
,2000,2,778,,93,11,-387,,229,-120,49,,-70,84,-295,,,3,,,,,
,-3000,2,-289,,95,-78,-401,,-19,219,-57,,44,80,-120,,,,,,,,
,4000,-2,125,,143,134,460,,-10,200,-45,,237,76,128,,,-1,,,,,
,-3000,4,388,,40,212,118,,13,111,77,,259,158,78,,,1,,,,,
,,,119,,128,115,-40,,5,-237,53,,91,54,97,,,7,,,,,
,,1,398,,500,336,595,,149,164,335,,298,155,2,,,-5,,,,,
,,,-287,,3,93,162,,-223,-34,37,,-45,-145,-123,,,4,,,,,
,1000,-2,-600,,-436,-99,-104,,21,-115,-231,,-111,-45,111,,,-12,,,,,
,-1000,6,-97,,-178,9,-262,,27,108,-16,,-419,129,-185,,,4,,,,,
,,,249,,317,218,407,,44,421,183,,-205,6,-153,,,-4,,,,,
,,2,-15,,-281,-48,-210,,-155,-220,-51,,-569,-178,-300,,,6,,,,,
,,-1,-357,,-324,-196,-551,,-20,-340,-252,,-261,-145,-393,,,-6,,,,,
,1000,3,-130,,-210,-218,-75,,-29,172,-87,,129,-159,93,,,-9,,,,,
,-1000,1,415,,121,-166,-150,,28,239,-32,,-57,,125,,,3,,,,,
,9000,,-90,,154,-70,-244,,96,-26,58,,-146,75,-90,,,5,,,,,
,9000,2,167,,-1,131,48,,-26,-160,60,,-78,45,-278,,,-4,,,,,
,-3000,2,-202,,126,204,266,,-44,-22,154,,-41,15,36,,,7,,,,,
,-4000,1,-35,,-65,43,561,,-22,7,-33,,-33,-59,127,,,11,,,,,
,-3000,,383,,-383,-173,-201,,-240,72,-202,,-115,-106,-63,,,-3,,,,,
,-4000,-1,300,,-271,-37,-341,,-151,-152,-89,,-109,-106,164,,,-6,,,,,
,-3000,11,-451,,81,101,297,,175,-15,-41,,379,4,456,,,-8,,,,,
,-1000,-7,-341,,176,-104,,,-19,-101,105,,87,-3,-90,,,-5,,,,,
,,8,124,,210,-99,-145,,-43,-78,-10,,15,-154,-4,,,13,,,,,
,,-5,529,,270,92,302,,35,171,84,,-57,-89,240,,,5,,,,,
,,3,312,,128,121,271,,-112,5,174,,-165,39,124,,,-3,,,,,
,,1,63,,-14,203,198,,103,15,312,,7,331,-10,,,-3,,,,,
,,,422,,161,-7,131,,55,-94,49,,-171,106,6,,,-2,,,,,
,,1,-4,,-219,-357,-325,,-81,-291,-235,,-100,-216,-153,,,-10,,,,,
,,3,-409,,-218,-164,-148,,-15,-144,-137,,246,-78,168,,,5,,,,,
,,-1,-701,,62,106,133,,-13,107,-24,,84,186,19,,,-2,,,,,
,,2,351,,127,47,11,,10,335,46,,1,-111,-24,,,2,,,,,
,,,160,,69,124,96,,11,373,40,,-23,-5,-52,,,10,,,,,
,,3,-102,,-11,197,376,,120,223,2,,116,40,-195,,,-2,,,,,
,,1,-431,,121,-136,202,,-38,-200,-234,,160,-143,-206,,,-6,,,,,
,,1,-472,,32,-179,-343,,-120,-28,-111,,-73,-148,-143,,,10,,,,,
,,,447,,-130,-58,45,,-92,46,85,,-309,106,141,,,-5,,,,,
,,-2,207,,-267,-120,-529,,,-121,-79,,19,-24,-69,,,5,,,,,
,,4,550,,-237,-30,-164,,82,-1,220,,51,148,241,,,-5,,,,,
,,3,124,,97,54,359,,22,-107,-1,,-285,91,95,,,-14,,,,,
,1000,,-348,,296,99,264,,1,-166,-43,,-205,59,-53,,,12,,,,,
,7000,3,-485,,5,54,-362,,-104,-78,58,,159,-166,89,,,2,,,,,
,-4000,1,235,,99,106,74,,172,183,252,,291,167,407,,,5,,,,,
,10000,1,568,,332,316,367,,277,176,266,,463,125,383,,,-4,,,,,
,-3000,50,-603,,-14,172,433,,46,118,56,,49,-88,-151,,,2,,,,,
,-4000,-51,-31,,112,77,231,,-32,4,153,,186,-131,-225,,,-2,,,,,
,-3000,48,637,,98,-37,-433,,1,-15,26,,-376,-119,-85,,,-3,,,,,
,-3000,3,89,,-232,-204,-262,,-60,-14,20,,-382,-107,-157,,,1,,,,,
,-1000,-21,-589,,8,-99,265,,-171,-55,-37,,-198,-21,-80,,,4,,,,,
,,1,-526,,-457,-99,371,,-44,-60,43,,-326,-38,201,,,-7,,,,,
,,2,-118,,-627,-354,-440,,-409,-11,-220,,-350,-115,-366,,,3,,,,,
,3000,1,171,,81,-252,-526,,-263,-300,-380,,-19,-206,-441,,,2,,,,,
,-1000,,90,,-37,-70,-592,,12,-141,-158,,182,104,-43,,,4,,,,,
,-3000,,-26,,-112,184,190,,237,111,-17,,664,208,424,,,-9,,,,,
,1000,,346,,4,292,304,,273,253,372,,367,164,399,,,5,,,,,
,,,179,,144,187,974,,240,381,204,,313,87,253,,,5,,,,,
,,5,-233,,176,119,611,,166,197,71,,-148,-54,-130,,,2,,,,,
,,-5,-286,,-10,-230,-500,,-217,67,-107,,-305,-295,-471,,,-8,,,,,
,,8,24,,163,-207,-907,,-107,-71,-246,,160,-78,-19,,,-7,,,,,
,3000,-3,-144,,-127,-78,79,,-224,-255,-223,,-125,-88,-32,,,-3,,,,,
,,3,-188,,21,36,-79,,-23,-251,-47,,-457,-195,127,,,8,,,,,
,-3000,-3,-98,,318,-29,-298,,182,-187,85,,42,51,32,,,-11,,,,,
,,7,330,,-65,62,31,,225,-52,19,,337,166,250,,,4,,,,,
,4000,2,315,,-293,50,42,,77,-67,175,,165,217,394,,,7,,,,,
,-3000,,203,,-66,31,280,,-135,-70,41,,112,33,15,,,2,,,,,
,-1000,,151,,225,249,527,,-19,-85,184,,108,75,8,,,15,,,,,
,,3,160,,144,104,-144,,39,233,68,,-181,91,-171,,,-4,,,,,
,5000,1,-267,,21,-104,15,,-61,-194,8,,-310,-110,29,,,-8,,,,,
,-3000,,-596,,35,-98,-53,,-26,-82,-140,,-138,-217,203,,,2,,,,,
,4000,8,-408,,283,54,-8,,218,233,-104,,222,46,53,,,5,,,,,
,,-9,446,,249,148,-377,,239,191,15,,42,98,-106,,,,,,,,
,-3000,5,394,,145,2,-203,,-24,115,-3,,221,-2,-126,,,-4,,,,,
,-3000,44,673,,-265,-15,188,,-61,184,2,,182,-115,141,,,2,,,,,
,,-44,-9,,-435,-150,-65,,-244,85,52,,-406,-80,164,,,-8,,,,,
,,,-356,,-228,-100,-543,,-293,-7,2,,-319,70,-52,,,1,,,,,
,,,-809,,-124,-244,105,,-282,-151,-161,,-587,-291,-205,,,-9,,,,,
,,4,-423,,-155,-211,310,,-252,-124,-97,,-90,-234,87,,,7,,,,,
,,1,28,,-283,-119,-169,,-121,-75,-121,,27,-103,6,,,2,,,,,
,,,149,,83,130,345,,292,-40,232,,253,222,83,,,1,,,,,
,,,-438,,704,357,337,,404,63,307,,560,118,331,,,-5,,,,,
,,4,-126,,1107,293,-86,,317,225,59,,444,163,283,,,-6,,,,,
,,,818,,391,178,386,,21,359,55,,-49,40,44,,,,,,,,
,3000,,1344,,-700,81,452,,-24,201,280,,-21,206,234,,,7,,,,,
,-3000,3,414,,-442,6,37,,141,-62,-11,,-60,-44,-141,,,-10,,,,,
,,1,66,,-10,59,-313,,133,-131,11,,301,-70,83,,,10,,,,,
,1000,,-169,,16,45,-278,,-77,-73,-193,,-160,75,-224,,,3,,,,,
,,,-327,,22,-5,-139,,-227,245,-169,,-560,-62,-174,,,-6,,,,,
,-1000,20,-53,,-413,-130,-79,,-417,218,-187,,-471,-217,-44,,,-2,,,,,
,,-12,-329,,-243,-284,-138,,-376,60,-201,,-93,-274,-105,,,17,,,,,
,,-3,-495,,-127,-275,-81,,-145,,-156,,-32,-46,-146,,,1,,,,,
,,2,-493,,-185,-219,-125,,-200,-65,-181,,-55,98,-294,,,-7,,,,,
,2000,1,-766,,-385,-228,-293,,-195,-437,-101,,47,-44,-389,,,-13,,,,,
,18000,21,-752,,-124,-3,-293,,161,-168,23,,88,85,-68,,,,,,,,
,-3000,-20,507,,134,24,-215,,432,-6,-50,,249,157,366,,,-3,,,,,
,-4000,3,476,,314,-113,298,,254,-28,48,,307,49,492,,,13,,,,,
,-3000,1,-240,,128,61,654,,78,-2,252,,-155,125,239,,,7,,,,,
,-3000,-1,348,,202,232,306,,165,6,302,,-151,1,27,,,-13,,,,,
,-4000,4,540,,579,448,150,,305,273,250,,315,135,155,,,-4,,,,,
,-3000,2,277,,289,379,-128,,339,410,73,,103,-19,-6,,,14,,,,,
,,,210,,205,66,-174,,-68,310,-78,,-462,10,-186,,,-7,,,,,
38,226000,152043,-648,,-1441,-1737,-1336,,-876,-1895,-1447,,-696,-248,-1774,,,-6,,,,,
,-4000,3,-766,,-114,-266,-185,,-101,119,-5,,-293,-115,63,,,14,,,,,
,-3000,1,15,,-128,160,230,,-182,95,162,,13,-27,-70,,,,,,,,
,-3000,1,542,,-16,356,14,,-97,532,197,,75,31,58,,,-2,,,,,
,-4000,,9,,-283,107,55,,-212,378,-56,,-164,-195,-180,,,-3,,,,,
,-3000,3,171,,317,307,561,,130,230,121,,109,-87,67,,,2,,,,,
,8000,,-88,,220,99,78,,177,177,27,,43,80,241,,,7,,,,,
,-4000,,-654,,-58,-123,39,,-125,60,-131,,-147,-127,-484,,,-5,,,,,
,-3000,1,-217,,-33,13,275,,-36,92,185,,-85,-65,-29,,,-6,,,,,
,-4000,,341,,24,-87,-407,,56,-213,186,,93,-73,198,,,7,,,,,
,-3000,4,443,,272,-78,-592,,160,-185,81,,291,215,125,,,5,,,,,
,-3000,,174,,-91,-2,-101,,100,-35,-112,,181,82,-235,,,-11,,,,,
,-4000,1,-239,,-501,-127,-234,,-28,-255,42,,-61,-22,43,,,-9,,,,,
,-3000,2,-183,,-34,-80,154,,-3,-175,102,,37,135,129,,,5,,,,,
,-4000,2,184,,211,55,366,,65,-221,65,,256,80,-59,,,-1,,,,,
,-3000,-2,218,,200,246,573,,152,35,262,,153,123,295,,,,,,,,
,-4000,31,30,,288,301,142,,33,114,61,,100,-51,324,,,6,,,,,
,-3000,-29,-513,,332,231,-29,,-21,167,-154,,149,-98,98,,,5,,,,,
,7000,5,-194,,218,175,254,,-185,199,-197,,-27,-43,-168,,,5,,,,,
,43000,3,832,,-420,-183,-636,,-431,256,-341,,-355,-88,-122,,,-6,,,,,
,-3000,,497,,-325,-274,-20,,-50,237,-127,,37,30,-29,,,-9,,,,,
,-3000,1,-391,,324,-76,77,,98,-17,85,,123,-30,25,,,7,,,,,
,-4000,,-720,,72,40,-396,,-62,-306,-32,,-223,-81,-136,,,10,,,,,
,-3000,1,125,,-301,38,104,,198,90,176,,-39,-24,-70,,,-10,,,,,
,-3000,2,355,,72,225,180,,380,121,307,,315,150,-81,,,2,,,,,
,-4000,1,-2,,168,60,58,,209,24,272,,582,110,92,,,9,,,,,
,-3000,-1,-308,,-393,-445,-325,,-94,-352,-123,,164,-165,244,,,-6,,,,,
,-3000,1,267,,-214,-188,173,,-100,-180,-15,,-83,-59,-40,,,-8,,,,,
,5000,19,-393,,107,130,238,,-90,64,142,,-72,137,-191,,,,,,,,
,-4000,-14,1030,,440,263,326,,-87,341,138,,56,117,194,,,11,,,,,
,-2000,-6,59,,-268,122,189,,-9,262,12,,-79,-8,-202,,,1,,,,,
,-4000,7,-528,,-360,18,240,,23,77,-47,,-169,-30,-176,,,-26,,,,,
,-3000,2,254,,-31,-228,-242,,-92,-65,-155,,-212,-149,-110,,,9,,,,,
,-4000,,395,,-102,-263,-377,,42,-159,-103,,-79,27,227,,,12,,,,,
,-3000,26,-597,,8,-183,-159,,179,-338,-138,,-175,32,411,,,4,,,,,
,-3000,-24,-272,,563,288,551,,216,-4,58,,275,86,243,,,-9,,,,,
,-4000,,662,,399,485,52,,267,218,157,,314,63,180,,,-2,,,,,
,-3000,,1013,,-22,321,271,,61,186,56,,-94,-99,45,,,-7,,,,,
,-4000,3,300,,125,38,,,-23,16,-120,,-68,-131,-305,,,5,,,,,
,-3000,25,-497,,-10,-191,-194,,-27,40,-166,,2,51,167,,,3,,,,,
,-3000,-24,-352,,-23,-430,-379,,-70,-406,-235,,-55,81,199,,,,,,,,
,-4000,,-769,,-118,-459,-556,,-181,-489,-251,,-75,15,-212,,,5,,,,,
,-3000,,-267,,191,-37,82,,-49,-39,29,,-128,-123,-324,,,-9,,,,,
,-4000,34,575,,108,336,355,,-31,247,265,,-280,7,52,,,3,,,,,
,-3000,-26,-126,,169,278,218,,-289,316,225,,-144,-119,319,,,5,,,,,
,9000,-1,-295,,-474,-115,383,,-351,-17,10,,-15,-133,-16,,,-7,,,,,
,-3000,1,-167,,-485,-75,-48,,-7,-214,87,,175,133,-150,,,6,,,,,
,-3000,1,460,,-183,-208,-446,,231,-26,-70,,190,44,-105,,,-7,,,,,
,-4000,3,-395,,338,-261,-326,,339,59,-10,,397,115,-30,,,6,,,,,
,1000,-3,-963,,180,-231,-238,,304,-46,-375,,261,-93,51,,,-7,,,,,
,-2000,,256,,297,5,119,,178,94,-280,,-231,-24,8,,,9,,,,,
,,4,659,,-48,188,-32,,-205,91,-208,,-448,24,-140,,,1,,,,,
,,-4,870,,-203,417,328,,48,507,116,,-65,193,-397,,,-4,,,,,
,,4,-44,,38,286,54,,-113,250,169,,15,-22,-404,,,2,,,,,
,4000,3,-857,,-277,-363,-695,,-349,-54,-151,,-407,-298,-103,,,-4,,,,,
,-3000,2,-198,,-353,-574,-328,,-358,-391,-58,,-282,-140,93,,,10,,,,,
,,,-406,,-454,-465,39,,-220,-376,58,,,-48,-112,,,8,,,,,
,12000,4,-35,,102,178,627,,-1,42,206,,-58,82,-142,,,-13,,,,,
,-4000,-2,240,,470,621,801,,306,-25,496,,178,205,154,,,-14,,,,,
,-3000,2,33,,463,529,768,,347,75,339,,246,103,391,,,2,,,,,
,-4000,,290,,482,309,3,,312,338,197,,136,71,258,,,4,,,,,
,-1000,3,688,,-199,141,-579,,152,258,277,,98,72,258,,,4,,,,,
,,1,337,,-72,-84,-313,,177,281,157,,188,67,299,,,,,,,,
,20000,,-267,,-211,-235,160,,-193,-155,-140,,-312,-58,-35,,,5,,,,,
,-1000,,-475,,-96,-204,-91,,-111,-72,-210,,-91,-111,-105,,,-5,,,,,
,-4000,5,-145,,-30,-319,-278,,29,-413,-252,,74,-145,-114,,,7,,,,,
,-3000,,-366,,81,48,197,,-18,-183,48,,45,32,-229,,,-7,,,,,
,-3000,1,161,,-112,304,665,,-112,-171,-107,,-151,-112,66,,,-3,,,,,
,-4000,-1,37,,-104,191,202,,-205,-129,-13,,-125,79,-163,,,-3,,,,,
,-3000,4,-207,,-372,-66,-106,,-71,53,-81,,-294,-36,-267,,,1,,,,,
,-3000,3,669,,-102,-86,-185,,193,57,82,,159,134,340,,,5,,,,,
,8000,-3,483,,229,-74,-245,,123,-131,-30,,356,109,155,,,,,,,,
,-4000,5,-850,,112,-70,99,,-88,-35,26,,-6,37,-184,,,-3,,,,,
,-3000,-1,-323,,174,130,382,,47,224,35,,-74,62,-276,,,3,,,,,
,,,-138,,161,105,-613,,35,410,-171,,-208,-102,-305,,,7,,,,,
,-1000,5,-168,,-17,64,-411,,41,160,-212,,347,48,57,,,-2,,,,,
,2000,,-314,,-4,-255,14,,-131,-98,-138,,-39,-33,273,,,1,,,,,
,-1000,4,288,,-393,-446,58,,-224,121,-42,,-277,7,-87,,,3,,,,,
,-1000,21,253,,-592,-440,2,,-135,-73,-22,,-222,-28,-243,,,-13,,,,,
,5000,-25,-179,,182,-135,-968,,50,-288,198,,467,274,443,,,3,,,,,
,3000,7,-12,,155,-152,-275,,-152,-407,6,,-48,-11,174,,,,,,,,
,-4000,1,-371,,-523,-97,670,,-197,40,-28,,-332,-315,-229,,,-2,,,,,
,1000,25,-54,,-228,226,81,,52,154,74,,167,-167,-314,,,-7,,,,,
,-1000,-29,306,,358,385,55,,26,170,42,,-437,-42,-282,,,4,,,,,
,7000,5,-1,,328,60,85,,-133,153,-179,,-388,-107,-186,,,1,,,,,
,-4000,,-110,,-167,48,-266,,-46,455,-136,,168,283,61,,,8,,,,,
,-3000,7,-490,,-170,-91,183,,-253,10,41,,34,-27,-200,,,1,,,,,
,-3000,22,-137,,-83,-86,268,,-123,-133,106,,-6,-333,-112,,,-5,,,,,
,-1000,-25,-137,,26,-50,-224,,-20,81,177,,85,26,88,,,-5,,,,,
,,,605,,345,243,87,,231,10,266,,114,195,512,,,1,,,,,
,,4,683,,223,233,142,,267,-91,31,,137,73,637,,,-2,,,,,
,2000,,225,,223,165,15,,223,-87,102,,204,80,538,,,-3,,,,,
,-1000,43,232,,296,272,410,,292,-208,147,,526,41,-53,,,4,,,,,
,-1000,-38,106,,334,267,181,,376,6,158,,363,56,33,,,9,,,,,
,,,71,,388,252,254,,212,193,222,,252,297,121,,,-3,,,,,
,,-5,168,,-152,-193,-40,,28,147,-58,,56,213,-90,,,3,,,,,
,4000,8,-21,,-281,-269,-5,,-88,-10,-284,,43,-48,-54,,,3,,,,,
,-3000,,-643,,-270,-305,-290,,-158,-61,-385,,-184,-152,-202,,,-9,,,,,
,-1000,1,-497,,-41,-166,-295,,-176,263,-284,,-172,-198,-358,,,-5,,,,,
,,,-80,,-124,-242,-125,,-240,-80,-243,,-134,-95,-525,,,3,,,,,
,,3,266,,-555,-366,-591,,-240,-341,-256,,-115,-135,-229,,,4,,,,,
,,1,-288,,-516,-244,-722,,-323,-398,-167,,-291,-133,-105,,,6,,,,,
,3000,,-378,,-58,-161,-200,,-325,-327,-89,,-274,-109,268,,,-1,,,,,
,-2000,,-995,,275,-162,-103,,-211,-266,-38,,-71,-30,-124,,,-4,,,,,
,7000,,-356,,-92,-174,5,,-71,-55,-156,,-80,-168,-321,,,-1,,,,,
,-3000,20,1104,,-521,-41,53,,106,44,-8,,116,-12,79,,,-4,,,,,
,-3000,-15,749,,212,275,-131,,308,346,406,,562,240,299,,,,,,,,
,-1000,,138,,721,463,568,,405,372,421,,402,404,243,,,7,,,,,
,14000,,95,,570,326,525,,134,116,221,,-37,98,211,,,-3,,,,,
,1000,23,284,,214,219,-229,,260,47,45,,290,12,234,,,-7,,,,,
,-4000,-19,332,,3,472,619,,258,304,93,,322,-144,242,,,13,,,,,
,-3000,,-45,,68,297,368,,-99,196,59,,-190,-210,121,,,3,,,,,
,-4000,41,-10,,157,-64,-260,,-247,-150,-65,,-314,-81,-326,,,-5,,,,,
,-3000,-38,192,,-283,-477,-423,,-210,-232,-51,,-677,-172,-229,,,-13,,,,,
,-1000,1,40,,-507,-419,-332,,-104,-161,-21,,-171,-44,-40,,,-11,,,,,
,1000,,-228,,96,-26,-82,,-1,-170,105,,67,80,69,,,10,,,,,
,1000,25,197,,309,250,326,,-34,-161,136,,413,-12,-142,,,5,,,,,
,-3000,-22,119,,-103,154,564,,234,-221,158,,184,128,-395,,,4,,,,,
,,,-185,,-122,-65,125,,300,280,96,,82,212,192,,,4,,,,,
,,2,-160,,241,-130,-12,,236,274,-65,,-62,109,-207,,,3,,,,,
,8000,,-206,,324,-125,-389,,192,188,-129,,48,62,-61,,,-1,,,,,
,-4000,4,94,,107,5,234,,62,-28,-193,,155,-101,143,,,-5,,,,,
,-3000,-2,456,,168,317,142,,262,238,200,,91,235,258,,,-13,,,,,
,-1000,-2,-380,,21,12,29,,-297,95,50,,-408,26,104,,,9,,,,,
,3000,7,-271,,-303,-116,67,,-229,-109,-73,,-348,-73,-73,,,12,,,,,
,-2000,16,-628,,-505,-247,-129,,-163,-156,-184,,-179,-161,-103,,,-5,,,,,
,,-14,72,,-343,-221,-594,,-189,82,-106,,-171,-208,-288,,,-12,,,,,
,1000,,128,,-510,-409,-817,,-596,-158,-190,,-380,-165,-247,,,6,,,,,
,-2000,,-470,,-627,-605,-401,,-384,-449,-374,,-422,-208,-500,,,10,,,,,
,2000,,-793,,-225,-326,-107,,-200,-125,-234,,-265,-103,-276,,,-12,,,,,
,-2000,7,-234,,569,161,346,,194,51,54,,196,-50,196,,,1,,,,,
,,-3,588,,328,377,559,,326,-87,360,,129,18,532,,,12,,,,,
,,,769,,-215,347,452,,134,19,319,,167,90,264,,,-6,,,,,
,,4,222,,257,227,-105,,75,,231,,325,215,72,,,-7,,,,,
,5000,-1,-283,,457,-27,-73,,186,51,72,,256,175,17,,,8,,,,,
,19000,,-452,,-375,-279,44,,-268,-177,-149,,-165,-163,-38,,,4,,,,,
,-4000,1,-141,,-511,-88,-457,,-315,65,-200,,-187,-102,-39,,,-2,,,,,
,-3000,27,222,,89,377,163,,-208,150,-81,,-149,-173,-52,,,-4,,,,,
,-3000,-24,75,,418,413,165,,10,306,15,,105,28,-104,,,4,,,,,
,-3000,4,579,,191,145,133,,218,307,-97,,145,122,-197,,,16,,,,,
,-4000,2,-467,,-4,-302,287,,64,-44,-263,,95,-105,-303,,,-21,,,,,
,-3000,2,-286,,-189,-363,-369,,119,-2,-110,,161,-211,-219,,,-3,,,,,
,-4000,23,431,,-338,-162,-608,,55,-242,54,,116,164,85,,,8,,,,,
,,-23,-246,,101,-36,120,,267,-265,-1,,208,70,-167,,,-10,,,,,
38,223000,152023,23,,655,816,61,,433,-371,-41,,97,329,671,,,2,,,,,
,-3000,,350,,106,125,273,,-198,198,98,,-299,-145,282,,,2,,,,,
,-3000,-1,115,,-412,-189,30,,-402,158,-20,,-220,-117,,,,5,,,,,
,-4000,,-257,,-608,-324,-226,,-358,45,-56,,-352,9,-172,,,-12,,,,,
,-3000,1,-785,,-259,-352,8,,-303,2,-119,,-106,-196,-219,,,,,,,,
,-4000,,-823,,2,-101,-117,,-52,-39,110,,134,20,5,,,8,,,,,
,-3000,-1,303,,99,-60,18,,247,87,122,,83,,280,,,2,,,,,
,-4000,1,256,,262,259,332,,299,55,11,,412,-2,427,,,4,,,,,
,-3000,,644,,301,227,-614,,251,-58,-148,,215,4,539,,,-4,,,,,
,-4000,,247,,313,270,175,,418,76,89,,345,241,78,,,12,,,,,
,-4000,1,187,,-157,-28,352,,-35,-17,213,,-120,115,-226,,,-11,,,,,
,-4000,5,570,,-438,-140,-148,,-145,127,165,,-100,-55,-249,,,-7,,,,,
,-3000,,35,,-148,-170,-7,,-322,-54,65,,-154,-126,-47,,,-5,,,,,
,-4000,1,-790,,68,-172,406,,-72,-119,-60,,-78,-180,-517,,,4,,,,,
,-4000,1,-223,,20,-136,67,,-32,122,-90,,-87,33,-236,,,11,,,,,
,-3000,3,-27,,-300,-136,-348,,-295,-337,-26,,-413,46,51,,,,,,,,
,-4000,10,-89,,-81,80,-120,,-173,-182,127,,-382,208,106,,,-11,,,,,
,-3000,-10,144,,81,47,192,,237,109,-106,,291,61,121,,,11,,,,,
,-4000,2,-125,,91,85,271,,305,274,57,,353,-23,-78,,,5,,,,,
,-4000,11,-455,,379,-8,-96,,126,-5,-95,,217,-165,2,,,-5,,,,,
,-4000,-11,493,,802,242,-24,,219,194,183,,345,116,9,,,5,,,,,
,,2,323,,-59,40,-416,,42,34,29,,-29,18,-390,,,-15,,,,,
,1000,-1,422,,-524,-26,541,,-6,73,43,,-22,2,-35,,,4,,,,,
,1000,1,-32,,-342,-106,226,,-20,-57,-20,,-89,-16,59,,,9,,,,,
,2000,1,-51,,312,-25,8,,-1,-241,-158,,-194,-149,56,,,-1,,,,,
,-2000,5,261,,434,238,80,,136,-65,-11,,229,-8,181,,,-3,,,,,
,-1000,,226,,-263,152,13,,62,-36,-21,,128,-127,174,,,-10,,,,,
,24000,,-324,,280,326,590,,92,342,363,,442,200,174,,,4,,,,,
,-4000,1,-187,,99,-34,-373,,-154,233,197,,-45,40,33,,,-5,,,,,
,-2000,,191,,-227,-82,63,,-171,77,91,,-81,62,177,,,8,,,,,
,-4000,,306,,-7,138,334,,-18,133,355,,-22,168,364,,,4,,,,,
,-4000,-2,115,,-160,103,-27,,80,122,131,,48,178,357,,,-12,,,,,
,-3000,4,-227,,65,-73,-87,,35,79,-166,,-30,18,-100,,,-5,,,,,
,-4000,3,92,,-40,-186,39,,-188,-459,-276,,-31,23,-352,,,2,,,,,
,-2000,14,93,,-227,-434,-669,,-182,-270,-447,,2,25,-353,,,7,,,,,
,-2000,-14,-832,,-204,-416,-448,,-358,-131,-280,,-370,-136,-601,,,8,,,,,
,2000,3,-1055,,-370,-294,-365,,-333,116,-288,,-547,-336,-532,,,-12,,,,,
,,-1,579,,-200,-134,-206,,-86,243,-121,,-69,-193,-207,,,-11,,,,,
,-2000,1,553,,149,78,138,,80,270,74,,-99,36,63,,,12,,,,,
,4000,1,-240,,22,127,161,,-76,195,14,,-125,12,277,,,-1,,,,,
,-2000,1,19,,-249,-53,652,,-17,-16,138,,-168,-190,98,,,2,,,,,
,-2000,2,-225,,277,127,138,,384,39,153,,151,-5,-30,,,4,,,,,
,,,-836,,300,25,-873,,-111,-223,-119,,298,-13,-258,,,8,,,,,
,,2,569,,37,-53,-307,,-114,-240,-71,,167,10,-126,,,,,,,,
,1000,,768,,48,-120,502,,-1,-11,-147,,313,6,55,,,-5,,,,,
,-1000,4,-128,,-330,,-19,,-5,-102,91,,-47,115,75,,,-1,,,,,
,3000,1,-431,,18,-28,227,,67,10,92,,-30,30,204,,,4,,,,,
,-3000,3,499,,596,210,16,,105,35,157,,111,-15,319,,,-4,,,,,
,,-2,1125,,-219,119,-273,,-130,-208,47,,131,-85,-86,,,-6,,,,,
,12000,-1,26,,-506,68,171,,-224,-136,108,,62,107,-321,,,6,,,,,
,-3000,-2,-188,,233,194,169,,-20,183,130,,-38,158,145,,,6,,,,,
,-3000,6,-506,,110,87,184,,-116,-303,-133,,-391,-156,-75,,,-2,,,,,
,-3000,2,-938,,407,243,112,,22,74,-2,,-11,93,439,,,-6,,,,,
,-2000,1,111,,372,204,-12,,313,457,45,,217,-27,223,,,1,,,,,
,6000,1,742,,-4,126,117,,408,204,-51,,115,-75,55,,,-1,,,,,
,-3000,-1,-198,,-268,-117,94,,71,-104,-74,,97,-70,-165,,,3,,,,,
,8000,8,346,,316,-39,78,,-41,121,-40,,27,72,-347,,,4,,,,,
,6000,-6,59,,167,-62,-166,,-308,-55,-8,,-249,-55,-12,,,-13,,,,,
,-3000,1,-320,,-232,-70,-7,,-858,-3,-20,,301,-37,-6,,,-6,,,,,
,3000,9,433,,-261,68,195,,-161,112,102,,318,179,-97,,,20,,,,,
,-4000,-5,-518,,-75,-35,-179,,-108,-68,-75,,-261,-149,-233,,,-2,,,,,
,-3000,1,-844,,-129,-210,-288,,-70,-131,-181,,-390,-86,-213,,,-1,,,,,
,-2000,4,257,,6,-75,-183,,110,207,11,,-232,-12,288,,,-9,,,,,
,-4000,-6,447,,88,-230,-311,,84,-194,-84,,83,-85,414,,,2,,,,,
,-1000,5,979,,-49,-189,176,,223,-213,162,,322,444,438,,,9,,,,,
,-3000,,182,,213,263,157,,417,85,307,,482,200,186,,,-14,,,,,
,,1,-484,,559,426,578,,219,161,370,,163,148,326,,,8,,,,,
,,8,280,,223,247,459,,144,16,89,,191,21,46,,,2,,,,,
,7000,-4,-598,,-534,-273,-209,,-131,101,-277,,107,-35,-21,,,-8,,,,,
,3000,1,-655,,-370,-379,-780,,-292,82,-439,,-62,-189,-201,,,13,,,,,
,-4000,,254,,172,-23,-376,,-265,103,-153,,-310,-161,-278,,,-1,,,,,
,,1,888,,-46,265,272,,-312,87,53,,-366,-243,-146,,,-9,,,,,
,,,500,,-308,336,495,,-122,60,73,,-22,-19,-22,,,1,,,,,
,-3000,5,-3,,215,152,315,,61,-40,-26,,-153,-71,-329,,,10,,,,,
,,21,-655,,15,-122,-90,,33,-326,-132,,-103,-213,-205,,,-13,,,,,
,-3000,-21,-121,,87,-224,-475,,98,-424,-132,,-129,-272,-176,,,-2,,,,,
,-1000,,365,,54,-226,-252,,59,-126,72,,-81,2,-235,,,-6,,,,,
,2000,-2,-569,,-151,-314,-150,,-102,86,-30,,-160,90,108,,,9,,,,,
,2000,11,-535,,-139,-122,-357,,-159,152,-103,,-66,30,210,,,9,,,,,
,13000,-5,581,,-181,234,122,,244,220,128,,318,68,238,,,2,,,,,
,-3000,3,246,,2,270,413,,137,231,200,,-137,340,223,,,-3,,,,,
,-3000,,180,,242,142,299,,48,154,237,,-62,139,183,,,-5,,,,,
,-1000,5,-154,,277,159,-56,,342,-56,306,,166,234,116,,,1,,,,,
,-4000,-4,-545,,481,110,358,,252,-216,270,,188,290,260,,,-4,,,,,
,-3000,3,735,,476,123,106,,266,156,294,,656,286,313,,,-6,,,,,
,-2000,-2,735,,-35,225,315,,225,121,259,,456,108,-97,,,20,,,,,
,,4,-376,,-197,74,143,,-5,-169,119,,29,,219,,,,,,,,
,8000,1,-575,,-498,-213,1,,-225,-202,-142,,-128,-213,125,,,-6,,,,,
,23000,,187,,-402,-415,180,,-182,-122,-531,,-232,-283,-112,,,6,,,,,
,-4000,12,-65,,-273,-527,-991,,-259,-37,-416,,-193,-37,-146,,,2,,,,,
,-3000,-11,-146,,-187,-165,-289,,-243,129,-223,,-399,-26,-322,,,-8,,,,,
,-4000,-2,-310,,-269,-133,-476,,-356,-116,-338,,-261,-283,-426,,,-9,,,,,
,-4000,30,-633,,70,-63,-256,,-147,-45,-337,,-282,-197,-472,,,-3,,,,,
,-3000,-17,-577,,30,-10,36,,1,-122,-160,,-82,100,-70,,,7,,,,,
,-4000,-1,-145,,325,182,8,,123,-81,-47,,88,119,398,,,-6,,,,,
,-4000,,1092,,-28,232,212,,35,45,247,,-28,191,227,,,9,,,,,
,-3000,-1,1220,,-169,364,671,,198,133,504,,-28,132,62,,,6,,,,,
,-3000,4,-107,,-30,242,164,,214,213,279,,357,110,476,,,-8,,,,,
,1000,-3,-531,,232,13,27,,193,15,34,,453,17,124,,,-11,,,,,
,,,-590,,-74,-99,112,,-113,189,-51,,66,106,-145,,,7,,,,,
,7000,,-13,,-302,-373,-127,,-288,50,-171,,-493,-106,-176,,,-1,,,,,
,-4000,-1,-270,,-16,-435,-494,,-135,-129,-210,,-266,-68,48,,,4,,,,,
,3000,4,-436,,-199,-208,-587,,-118,-430,-105,,178,-9,-213,,,-2,,,,,
,-3000,1,220,,-214,-180,-659,,-267,-291,-159,,-53,-178,-81,,,-7,,,,,
,10000,7,243,,-149,28,-119,,-109,-62,14,,86,95,252,,,2,,,,,
,-3000,-6,161,,227,340,724,,13,-2,111,,-160,-64,-147,,,15,,,,,
,-4000,1,-5,,691,369,388,,235,170,64,,160,-155,28,,,8,,,,,
,6000,4,716,,220,212,557,,160,432,194,,229,156,311,,,-15,,,,,
,-4000,19,-523,,89,-11,61,,69,147,1,,270,-114,46,,,-8,,,,,
,-4000,-20,-525,,-407,-72,-766,,52,61,-4,,34,3,13,,,2,,,,,
,-3000,2,1457,,-789,-183,32,,-85,-49,-127,,-189,-125,-118,,,,,,,,
,-2000,7,-44,,-96,81,978,,-108,18,138,,-502,-53,-2,,,-3,,,,,
,1000,-5,-480,,339,135,59,,12,-123,242,,-248,170,306,,,-2,,,,,
,3000,1,48,,234,-64,-562,,-138,-409,155,,-11,76,255,,,20,,,,,
,-3000,-1,118,,75,-19,98,,89,-107,195,,646,-51,191,,,,,,,,
,1000,3,44,,2,55,122,,215,352,196,,353,-8,85,,,-14,,,,,
,-1000,,-315,,-6,1,171,,35,-72,-10,,-205,17,-372,,,4,,,,,
,,2,85,,-52,40,278,,140,-6,30,,67,4,-95,,,-2,,,,,
,,,-825,,-290,-76,-281,,16,226,-245,,-215,-188,40,,,-1,,,,,
,3000,3,-740,,-17,-168,-70,,-98,253,-313,,-237,-122,-348,,,9,,,,,
,-3000,1,1267,,65,-192,-102,,65,-192,-18,,-46,120,36,,,-8,,,,,
,,1,780,,-409,-173,-505,,-115,-120,36,,188,49,115,,,8,,,,,
,,,-766,,-61,-143,-551,,-255,-289,-97,,-39,-71,-121,,,4,,,,,
,1000,-3,-1516,,138,-84,-36,,135,-187,-135,,41,,-242,,,-5,,,,,
,3000,5,-231,,403,-176,55,,-6,-105,-163,,-60,-96,-145,,,-7,,,,,
,-3000,5,1143,,-394,-236,-71,,-318,-226,-25,,-326,-78,-172,,,-3,,,,,
,-1000,-3,-177,,-754,-187,-472,,-170,-115,19,,-438,-43,-256,,,-2,,,,,
,,1,123,,-5,-3,-239,,65,51,-52,,-174,-43,-26,,,8,,,,,
,,4,573,,117,-86,26,,94,75,75,,-23,40,313,,,-2,,,,,
,,-2,-232,,60,-180,692,,-41,93,100,,53,15,183,,,-9,,,,,
,9000,2,-432,,-3,-25,283,,-158,91,-89,,-114,87,-159,,,11,,,,,
,-2000,,-489,,-95,68,-364,,-75,11,-21,,140,100,-11,,,8,,,,,
,-3000,3,332,,356,158,110,,235,3,-30,,259,52,158,,,-14,,,,,
,31000,1,322,,379,210,58,,345,213,118,,39,103,113,,,2,,,,,
,-4000,1,-448,,-365,-225,-551,,-34,-59,-202,,78,-6,84,,,-1,,,,,
,-4000,,-87,,-74,-21,-29,,81,-69,39,,66,-115,56,,,-4,,,,,
,-3000,,46,,62,55,136,,-92,-76,-23,,-111,-260,-252,,,-5,,,,,
,-4000,4,-36,,59,111,16,,-92,3,-129,,-153,-234,-306,,,9,,,,,
,-3000,,-20,,183,65,276,,52,-170,18,,-3,-111,-87,,,7,,,,,
,-4000,-1,-78,,-235,-36,12,,-59,-161,41,,-14,-139,-199,,,-5,,,,,
,-4000,2,320,,-82,135,-393,,179,128,58,,-109,30,-556,,,3,,,,,
,-3000,,521,,318,166,238,,3,389,104,,-123,17,,,,,,,,,
,-3000,9,-34,,327,309,777,,40,221,231,,-83,-7,290,,,5,,,,,
,-3000,-5,-439,,55,281,20,,-85,49,97,,167,55,417,,,-2,,,,,
,,-1,380,,-155,76,-276,,7,-71,-26,,383,91,309,,,-2,,,,,
38,216000,152036,1236,,1038,859,1536,,309,579,153,,222,428,109,,,-5,,,,,
,-3000,3,286,,-77,-163,-757,,14,1,99,,143,56,-137,,,-1,,,,,
,-4000,1,78,,382,2,130,,98,56,156,,146,164,-108,,,-11,,,,,
,-3000,3,-125,,-26,13,827,,-338,-24,198,,-83,101,95,,,3,,,,,
,-3000,-3,-184,,-469,-58,-7,,-364,-253,121,,-365,-103,123,,,7,,,,,
,-3000,,-38,,-143,61,-253,,-50,-133,-155,,-205,-132,-75,,,5,,,,,
,-4000,4,-532,,239,135,-151,,61,-89,-145,,-96,-120,-186,,,-3,,,,,
,-3000,-1,101,,230,58,-84,,110,123,-131,,65,-233,-105,,,-8,,,,,
,-4000,2,995,,298,226,322,,304,520,151,,130,-49,38,,,9,,,,,
,-3000,1,175,,134,364,289,,286,2,57,,292,-81,222,,,6,,,,,
,-3000,-1,-235,,147,308,319,,56,-51,113,,-10,-45,-123,,,-2,,,,,
,-4000,1,-51,,42,-36,460,,-65,-35,36,,-490,-110,-325,,,3,,,,,
,-3000,3,299,,-286,-133,194,,-123,-86,-118,,18,-226,-195,,,1,,,,,
,-4000,-1,-97,,-203,-19,-441,,-170,-181,-93,,321,-203,-292,,,-5,,,,,
,-4000,,-50,,141,-89,-410,,-156,-90,59,,144,125,-197,,,,,,,,
,-2000,3,-208,,273,62,158,,244,-77,86,,335,276,387,,,8,,,,,
,-4000,10,317,,-224,42,-122,,115,-43,132,,168,202,567,,,-3,,,,,
,-3000,-2,473,,-71,7,-16,,36,-82,155,,34,54,226,,,,,,,,
,-4000,2,-194,,148,32,224,,22,-96,37,,-100,-50,-121,,,-5,,,,,
,-3000,-10,-343,,,77,-87,,200,51,-60,,-131,-55,71,,,,,,,,
,,4,-181,,-6,-25,-77,,116,-115,-328,,-123,-63,152,,,4,,,,,
,6000,1,310,,188,198,282,,130,151,-104,,55,215,-285,,,-1,,,,,
,-3000,,165,,40,-6,-64,,-44,-144,-165,,259,-130,-418,,,7,,,,,
,,7,-234,,150,44,-74,,108,-202,-69,,173,-118,-350,,,,,,,,
,7000,-1,1037,,245,157,-82,,183,237,67,,142,-41,160,,,,,,,,
,-3000,-1,660,,172,178,229,,-143,140,2,,-234,-161,164,,,3,,,,,
,-4000,3,193,,-57,74,271,,-159,-57,72,,-180,-42,-129,,,-10,,,,,
,6000,6,714,,-20,103,475,,-114,-82,169,,-255,-58,-165,,,3,,,,,
,-3000,-5,878,,-22,60,271,,34,-4,16,,-125,-135,-97,,,-2,,,,,
,-4000,6,570,,-22,-16,-372,,112,-33,-30,,-298,-164,-137,,,1,,,,,
,-2000,-5,98,,62,-111,210,,29,-121,-9,,-241,3,-106,,,-1,,,,,
,,,1120,,137,30,260,,43,-22,200,,279,104,316,,,-8,,,,,
,,3,1559,,214,284,-16,,129,487,373,,245,237,390,,,-1,,,,,
,2000,15,1348,,456,291,419,,203,58,153,,27,224,178,,,-3,,,,,
,-2000,,506,,141,52,549,,147,-273,-66,,323,-4,121,,,-3,,,,,
,,,449,,81,144,774,,-86,-665,-30,,75,140,-47,,,8,,,,,
,4000,,1018,,253,132,-431,,-66,-356,32,,76,-80,253,,,3,,,,,
,-3000,,935,,196,140,-470,,-198,-166,21,,130,-30,307,,,-6,,,,,
,-1000,-2,137,,340,-109,316,,-510,-221,-283,,-284,-62,-80,,,10,,,,,
,,,50,,-232,-504,-98,,-463,-84,-310,,-393,-208,-287,,,,,,,,
,2000,,1082,,-1210,-484,-640,,-415,13,-513,,-451,-328,-461,,,-5,,,,,
,1000,2,373,,-650,-163,-412,,-240,104,-303,,-439,-301,-529,,,-4,,,,,
,-3000,-2,-150,,149,114,113,,80,279,-9,,-166,-299,-337,,,4,,,,,
,,2,100,,68,50,109,,250,186,156,,161,-139,382,,,1,,,,,
,,8,-147,,248,185,459,,277,257,281,,460,181,541,,,5,,,,,
,,,-786,,173,272,298,,388,271,298,,553,394,438,,,-4,,,,,
,,-1,-624,,151,65,-22,,176,94,139,,297,181,184,,,4,,,,,
,,1,-304,,237,170,-366,,103,-26,283,,241,333,90,,,-5,,,,,
,5000,-1,-366,,43,-15,-241,,106,-121,148,,290,191,-41,,,-1,,,,,
,-3000,,-740,,-225,-277,57,,40,-115,-70,,196,-77,-362,,,7,,,,,
,5000,,-486,,-156,-244,-122,,-20,-62,79,,71,98,166,,,-10,,,,,
,-3000,,-932,,-32,-22,313,,-13,162,172,,-15,-66,519,,,2,,,,,
,-4000,2,-1035,,-202,61,129,,-104,252,70,,70,6,336,,,9,,,,,
,3000,11,-598,,-170,33,398,,-262,238,7,,-203,24,65,,,-5,,,,,
,3000,-8,-227,,320,105,77,,97,124,87,,-192,-14,127,,,-2,,,,,
,-4000,-1,-2,,339,158,-592,,292,-224,-30,,-200,-186,-41,,,-1,,,,,
,-3000,8,-64,,-289,-1,-31,,-89,83,-90,,-60,-178,-293,,,3,,,,,
,5000,-6,-501,,-545,-230,-430,,-429,-64,-112,,-399,-297,-354,,,2,,,,,
,-2000,,-501,,145,-112,-391,,-91,-95,-220,,-333,-126,-69,,,-12,,,,,
,-3000,1,-2,,437,179,314,,269,209,-62,,209,123,103,,,7,,,,,
,1000,1,-450,,266,144,450,,371,129,91,,312,233,382,,,-3,,,,,
,34000,3,-268,,-101,-36,-111,,105,-95,38,,157,112,27,,,2,,,,,
,-3000,,-309,,-286,-128,-195,,53,-57,-46,,-2,13,-464,,,11,,,,,
,-3000,2,-120,,-13,-99,70,,132,-110,30,,262,176,-203,,,-8,,,,,
,-4000,-1,-46,,65,-166,-19,,151,-492,26,,522,134,-221,,,-6,,,,,
,-3000,4,-197,,55,-233,-315,,81,-193,-176,,154,-106,-242,,,2,,,,,
,-4000,1,48,,215,106,-230,,108,318,110,,11,166,73,,,5,,,,,
,-3000,-1,-56,,-26,-14,33,,-128,-3,56,,-324,34,-15,,,3,,,,,
,-3000,2,-763,,-362,-178,146,,-315,-166,-211,,-389,-258,-372,,,-1,,,,,
,-4000,,-181,,-343,-166,-424,,-178,49,-89,,-36,-149,-2,,,-4,,,,,
,-3000,12,-189,,-95,-86,-250,,-34,-73,-198,,-241,-70,-75,,,-3,,,,,
,-4000,-6,-169,,215,94,85,,-117,383,13,,-293,113,-115,,,4,,,,,
,,-3,-184,,-25,-10,-117,,-232,336,-12,,-108,-98,-78,,,3,,,,,
,,2,-212,,-4,-80,-295,,-127,-152,-208,,-236,-106,227,,,3,,,,,
,,-3,-192,,67,-91,61,,31,-210,-143,,78,-118,331,,,5,,,,,
,,5,-406,,31,-11,16,,152,173,137,,399,40,43,,,-13,,,,,
,,2,-36,,-294,-101,-148,,8,133,316,,362,150,-85,,,15,,,,,
,2000,,62,,-382,-109,-12,,-29,-26,135,,181,184,210,,,-6,,,,,
,-2000,1,34,,22,-158,62,,-99,-69,-17,,-44,-107,39,,,-2,,,,,
,1000,2,-220,,19,-218,-71,,-206,-263,-171,,-131,-303,-192,,,6,,,,,
,4000,2,-216,,-24,-154,-211,,-6,-291,-219,,-59,-107,-13,,,-8,,,,,
,-3000,,358,,410,149,100,,157,-47,143,,-25,117,263,,,10,,,,,
,-1000,5,30,,101,283,567,,-47,108,259,,-154,194,70,,,-2,,,,,
,-1000,-1,-168,,-270,125,125,,8,-30,9,,34,113,37,,,-7,,,,,
,,1,5,,114,155,-298,,174,200,-16,,141,11,156,,,-3,,,,,
,,,337,,401,70,-103,,133,388,-43,,107,110,99,,,5,,,,,
,,3,-37,,19,-91,39,,-65,147,-116,,238,-26,-449,,,-5,,,,,
,,-1,-896,,-143,-129,-35,,139,308,-151,,144,-17,4,,,,,,,,
,,3,-657,,-72,-197,-152,,-62,-5,-468,,-229,-187,-42,,,5,,,,,
,,,-173,,-330,-229,-518,,-116,-293,-361,,-116,-220,77,,,3,,,,,
,7000,-3,224,,-105,-27,-235,,88,-72,-124,,144,-165,-50,,,-6,,,,,
,-3000,6,320,,288,133,103,,111,129,149,,150,25,53,,,3,,,,,
,-1000,1,222,,-85,3,107,,-76,159,26,,-61,23,82,,,-6,,,,,
,-3000,,-42,,-138,-102,-378,,-73,-84,47,,-13,84,88,,,1,,,,,
,3000,,-398,,-396,-226,-529,,51,-169,15,,-22,212,251,,,-5,,,,,
,,1,-157,,-200,-90,-161,,-17,11,13,,133,89,144,,,9,,,,,
,7000,3,-211,,188,-72,381,,-51,-307,70,,80,74,-162,,,5,,,,,
,-1000,-1,-130,,257,6,151,,-29,-70,11,,91,21,-482,,,-7,,,,,
,-3000,1,-195,,64,100,57,,-3,92,121,,-42,-59,-431,,,-3,,,,,
,-4000,2,42,,-181,-108,-674,,-63,-25,12,,-69,-129,1,,,11,,,,,
,2000,26,503,,-177,-165,73,,-109,186,-61,,315,60,81,,,-11,,,,,
,1000,-23,403,,33,-39,507,,145,259,66,,391,85,-90,,,-9,,,,,
,-1000,,-175,,10,-4,246,,-88,-51,43,,401,-68,-211,,,6,,,,,
,-3000,1,-165,,145,113,66,,-36,-31,33,,207,122,-163,,,-8,,,,,
,25000,4,255,,256,274,222,,128,120,140,,77,-27,92,,,2,,,,,
,-2000,-1,-243,,198,270,268,,80,234,104,,271,-158,38,,,17,,,,,
,-4000,1,-519,,60,44,89,,-97,-67,-302,,-486,-371,-184,,,-4,,,,,
,-3000,-1,315,,-162,-79,-12,,-172,161,-113,,-542,-44,-1,,,-2,,,,,
,-4000,2,272,,-106,-329,-453,,25,-115,-132,,-39,-32,-33,,,11,,,,,
,-3000,1,182,,391,-109,211,,274,-278,-162,,145,107,-48,,,-5,,,,,
,-1000,2,51,,-32,-190,-383,,151,-96,-120,,198,108,-103,,,-9,,,,,
,-4000,10,-232,,-588,-240,-696,,184,-262,-50,,66,47,-112,,,-1,,,,,
,-3000,-7,-432,,-301,-54,116,,-159,-353,28,,-159,-58,66,,,7,,,,,
,-2000,,-191,,51,64,83,,-341,-124,42,,-63,-74,167,,,-3,,,,,
,,1,-431,,-197,-87,-232,,-520,88,-70,,-181,-93,257,,,-1,,,,,
,,,81,,69,14,-215,,-475,187,-104,,-234,-159,-195,,,-10,,,,,
,31000,1,618,,314,613,208,,239,415,361,,67,97,410,,,10,,,,,
,1000,2,409,,631,814,1266,,559,519,655,,301,275,562,,,3,,,,,
,-3000,,203,,580,267,527,,421,-107,373,,125,275,-82,,,-6,,,,,
,-4000,3,210,,70,-268,117,,240,-258,-202,,59,100,217,,,,,,,,
,-4000,-1,-401,,-502,-516,-1154,,80,-114,-408,,103,-92,-38,,,13,,,,,
,-3000,2,-266,,-720,-532,-1153,,180,-38,-206,,-16,-3,-378,,,-1,,,,,
,-4000,1,-317,,-477,-395,-259,,-41,-201,-81,,-114,-32,-322,,,-7,,,,,
,-3000,,-650,,-315,-429,75,,-476,-416,-61,,-200,-136,-196,,,-4,,,,,
,-4000,3,129,,47,107,643,,-177,-28,183,,-141,-5,428,,,2,,,,,
,-4000,8,464,,444,387,526,,62,-9,319,,176,45,317,,,-7,,,,,
,-3000,-7,269,,435,588,530,,-39,85,325,,-152,-52,463,,,-2,,,,,
,19000,1,-139,,364,615,936,,-202,222,148,,-208,2,10,,,16,,,,,
,-4000,3,445,,229,452,183,,-89,523,-57,,-132,-30,147,,,3,,,,,
,-2000,,781,,228,251,-504,,199,781,-41,,-25,-65,-63,,,-8,,,,,
,-3000,1,-31,,-58,-355,-246,,-154,-83,-270,,-108,-152,-482,,,5,,,,,
,-4000,,-479,,-279,-543,-294,,32,-470,-312,,-89,-67,-459,,,1,,,,,
,-3000,1,-458,,-608,-430,-335,,56,-374,-32,,61,271,-123,,,10,,,,,
,-3000,3,-12,,-278,-57,61,,171,-224,254,,321,355,64,,,-11,,,,,
,,,-156,,-30,-86,-187,,-22,-155,153,,242,163,123,,,-10,,,,,
,,1,38,,56,183,396,,44,30,218,,383,153,43,,,-1,,,,,
,1000,-3,-60,,204,314,514,,82,310,195,,156,47,182,,,-9,,,,,
,-1000,7,-697,,56,-8,220,,-154,38,-55,,-422,-294,-90,,,8,,,,,
,,-1,-53,,221,65,-221,,-74,-35,-113,,-315,-225,-97,,,7,,,,,
,,2,-193,,164,-61,-306,,-134,69,-262,,-305,-206,-135,,,,,,,,
,,-3,-65,,-3,34,197,,-12,-14,-112,,-178,-28,-274,,,5,,,,,
,1000,5,180,,-405,54,-275,,-98,-112,-208,,-243,-22,-342,,,-10,,,,,
,-1000,2,128,,-315,64,-294,,-69,111,20,,-7,9,-197,,,7,,,,,
,,2,760,,-32,112,267,,-62,173,263,,97,-48,-93,,,-11,,,,,
38,221000,152044,-383,,85,-943,-408,,-244,197,-78,,-311,471,1438,,,14,,,,,
,-3000,1,-552,,-371,-149,-305,,-120,21,-453,,59,32,-133,,,,,,,,
,-4000,,-679,,-89,-20,236,,-42,-278,-323,,244,-88,2,,,2,,,,,
,-3000,,416,,365,255,640,,347,290,-75,,320,108,-277,,,-2,,,,,
,-4000,2,-102,,-69,-128,-44,,144,-307,-374,,320,-188,-397,,,-7,,,,,
,-4000,1,-776,,196,-60,-1145,,179,-288,5,,162,69,-144,,,4,,,,,
,-3000,2,773,,310,108,-27,,-10,-111,44,,-192,-17,-129,,,-4,,,,,
,-4000,-1,359,,-194,110,68,,-148,-151,128,,-389,-164,-119,,,,,,,,
,-3000,1,455,,-38,293,97,,30,300,495,,-286,134,355,,,5,,,,,
,-4000,4,199,,-68,213,223,,140,205,433,,6,198,314,,,,,,,,
,-3000,-1,-28,,120,159,322,,-37,422,269,,349,192,443,,,3,,,,,
,-4000,,259,,-111,-2,394,,-128,234,286,,145,50,402,,,-13,,,,,
,-3000,2,254,,-133,-192,-424,,-25,-198,-54,,-168,-62,185,,,-7,,,,,
,-4000,,-394,,-29,-180,-108,,-71,-241,-373,,-187,-339,161,,,-3,,,,,
,-3000,,-382,,-17,-16,-17,,-37,-256,-361,,117,-76,-169,,,17,,,,,
,-4000,3,-456,,-342,-186,-391,,-112,-138,-177,,-160,7,-154,,,-2,,,,,
,-4000,-1,-110,,-131,-218,-34,,-39,-69,-164,,42,129,-221,,,-3,,,,,
,-3000,13,-154,,-55,-236,210,,-115,-69,-54,,191,44,-184,,,-1,,,,,
,-4000,-4,363,,-20,-51,85,,-366,-65,91,,-198,-22,-23,,,5,,,,,
,-4000,-3,572,,248,307,-128,,-298,244,286,,-207,116,-52,,,2,,,,,
,-1000,1,219,,10,352,-74,,46,355,450,,-208,-12,-78,,,2,,,,,
,8000,-1,-62,,218,198,568,,185,243,223,,-373,-220,-49,,,-10,,,,,
,-3000,2,-23,,530,250,149,,230,220,127,,130,9,291,,,-2,,,,,
,-3000,,156,,34,29,-327,,235,3,35,,160,-1,130,,,,,,,,
,9000,4,317,,-277,-248,155,,86,-134,-49,,-356,-143,-81,,,2,,,,,
,-4000,,-145,,-267,-267,-109,,-105,-97,1,,-347,-178,-498,,,-2,,,,,
,-3000,-1,-627,,-18,-205,-119,,-224,-271,-144,,-104,-30,-600,,,9,,,,,
,-4000,11,-134,,-151,-340,-166,,-148,-523,-413,,106,-150,-7,,,-9,,,,,
,2000,-6,-488,,-139,-249,6,,68,-270,-384,,284,23,321,,,1,,,,,
,-2000,25,-370,,-19,16,171,,293,-18,-204,,273,290,-236,,,6,,,,,
,4000,-24,188,,34,-66,-580,,101,32,-150,,284,98,45,,,-8,,,,,
,-3000,,402,,107,-43,-495,,73,-135,-156,,240,77,40,,,5,,,,,
,-1000,4,-217,,115,-145,-102,,-126,-238,-152,,53,-193,-504,,,2,,,,,
,1000,-1,508,,485,147,344,,92,109,139,,287,274,146,,,-4,,,,,
,1000,1,329,,79,337,127,,257,374,327,,70,422,414,,,5,,,,,
,-2000,,208,,-99,285,105,,150,420,278,,-68,34,96,,,-8,,,,,
,3000,-1,-648,,-145,-31,35,,-460,-102,-176,,-347,-318,-16,,,4,,,,,
,5000,5,-824,,-416,-232,-123,,-543,-194,-191,,-657,-302,-375,,,-1,,,,,
,-3000,,-143,,-414,-289,-145,,-400,-368,-45,,-532,-100,-54,,,3,,,,,
,-3000,2,-286,,-240,-315,-631,,-402,-316,-96,,-433,-224,47,,,-2,,,,,
,-2000,,299,,-241,-122,202,,-63,-75,89,,-183,-88,156,,,2,,,,,
,1000,3,195,,200,217,762,,260,63,353,,286,243,225,,,4,,,,,
,-1000,2,970,,580,474,176,,571,222,556,,699,382,586,,,6,,,,,
,,9,954,,253,343,135,,542,225,235,,312,206,384,,,-9,,,,,
,,-9,-249,,180,124,174,,423,-7,26,,273,82,-13,,,1,,,,,
,,,-453,,-17,50,53,,108,238,227,,195,54,21,,,-3,,,,,
,2000,4,-181,,-27,-161,-135,,-184,196,-78,,119,15,-276,,,-5,,,,,
,1000,-1,-121,,-249,-304,11,,-222,-110,-297,,-154,-152,-215,,,7,,,,,
,-3000,2,-127,,-246,-173,28,,-134,-60,-215,,40,-150,-96,,,-3,,,,,
,,,-571,,-59,-70,-61,,137,78,-82,,130,127,134,,,-1,,,,,
,9000,2,-248,,-324,-259,-838,,-295,-103,-216,,-302,-75,-183,,,-8,,,,,
,-3000,,5,,-87,-284,-523,,-304,124,-509,,-267,-113,-703,,,1,,,,,
,-4000,1,-574,,55,-275,-224,,-97,15,-497,,-114,-157,-740,,,20,,,,,
,-2000,1,-21,,153,146,107,,77,-136,26,,61,-112,-92,,,,,,,,
,,-3,1036,,409,540,284,,98,-118,430,,145,124,405,,,-8,,,,,
,1000,1,487,,478,744,1064,,179,-38,628,,112,454,503,,,2,,,,,
,-1000,5,740,,333,748,1196,,291,224,873,,442,331,542,,,-4,,,,,
,,3,-439,,166,350,198,,149,389,365,,384,68,223,,,2,,,,,
,3000,-1,-1326,,154,-218,-265,,-34,28,-185,,-52,-155,73,,,8,,,,,
,-1000,3,1005,,-257,-129,-500,,67,-15,-179,,-242,-79,-301,,,-1,,,,,
,-2000,,690,,-304,-95,-32,,109,-199,-142,,-152,-40,-429,,,-6,,,,,
,,,-283,,-410,-259,68,,-121,-100,-185,,-184,-101,-15,,,6,,,,,
,,1,-826,,-275,-381,-138,,-189,130,-104,,-176,-47,-134,,,-4,,,,,
,,1,-339,,-338,-361,-680,,-290,144,-403,,-282,-395,-370,,,-10,,,,,
,,-1,-11,,-699,-527,-267,,-500,-222,-331,,-232,-178,55,,,8,,,,,
,2000,5,-309,,-222,-510,-226,,-251,-62,-178,,-185,-21,30,,,6,,,,,
,-2000,1,161,,35,-124,-502,,88,-105,-32,,197,-6,483,,,-6,,,,,
,2000,,-335,,178,177,-232,,152,-93,98,,-168,53,333,,,-4,,,,,
,-2000,11,-121,,527,280,117,,223,38,150,,115,210,317,,,-2,,,,,
,,-10,785,,381,367,533,,188,42,135,,-37,230,-29,,,3,,,,,
,,1,123,,-187,205,-147,,173,96,14,,221,94,-93,,,-3,,,,,
,,3,-237,,-253,-73,75,,114,-88,-162,,-63,18,103,,,2,,,,,
,,,38,,29,-313,32,,163,70,-128,,-207,-98,31,,,8,,,,,
,8000,-1,-206,,244,-7,-216,,242,39,-18,,25,147,-199,,,-5,,,,,
,-4000,4,-524,,255,130,200,,143,87,195,,65,-123,-43,,,3,,,,,
,7000,-1,521,,259,257,534,,168,1,340,,265,191,199,,,,,,,,
,-4000,2,1063,,191,155,13,,119,8,334,,326,137,271,,,-10,,,,,
,-3000,,201,,-290,-226,75,,-173,-133,-113,,8,-150,-291,,,3,,,,,
,-3000,6,-134,,-143,27,156,,29,185,52,,26,-30,-246,,,3,,,,,
,,-2,-318,,-89,-152,-588,,-91,154,-26,,-136,-264,-88,,,10,,,,,
,,,-586,,-263,-228,-298,,-327,-150,-108,,-347,-227,168,,,-9,,,,,
,-1000,,-148,,-70,-55,-220,,-318,-326,-93,,-203,-163,131,,,,,,,,
,5000,2,253,,248,177,140,,-31,264,133,,329,213,149,,,-8,,,,,
,-4000,2,215,,152,195,526,,-24,340,13,,178,-85,114,,,11,,,,,
,-1000,-1,-38,,-32,16,620,,-167,-87,-333,,-130,-296,-119,,,3,,,,,
,,3,-691,,-75,-27,-470,,-36,-120,-390,,-237,-220,-586,,,-6,,,,,
,,,-316,,-42,-95,-613,,3,-206,-280,,-110,-44,-304,,,2,,,,,
,,3,500,,-556,-378,-157,,-33,-140,-273,,-11,-75,-416,,,-7,,,,,
,1000,1,-100,,-614,-216,-175,,-29,61,-103,,44,-81,-432,,,-3,,,,,
,-1000,,-208,,-13,-32,-260,,90,90,-66,,107,-25,-118,,,2,,,,,
,,1,-70,,51,34,-94,,238,103,52,,-135,24,159,,,5,,,,,
,,-1,125,,-29,261,152,,276,-38,279,,-33,-14,317,,,11,,,,,
,3000,4,488,,513,356,469,,297,-154,274,,431,275,578,,,-9,,,,,
,-3000,3,764,,590,462,421,,425,286,532,,699,535,776,,,-2,,,,,
,2000,-2,730,,594,439,619,,179,160,500,,362,522,325,,,-4,,,,,
,-2000,2,-105,,338,66,-19,,-201,-205,198,,-61,111,128,,,1,,,,,
,,-3,-519,,-114,-199,-366,,-301,-245,-94,,-348,-245,-25,,,9,,,,,
,3000,4,252,,-405,-254,100,,-200,69,-202,,-201,-210,-200,,,1,,,,,
,15000,2,-349,,-434,-209,-71,,-182,261,-202,,98,-58,-429,,,6,,,,,
,-3000,1,-611,,-247,-361,-669,,-259,-45,-214,,-28,-45,-279,,,-16,,,,,
,-3000,-3,-640,,-133,-400,123,,-116,-410,-117,,-420,75,-262,,,2,,,,,
,-4000,6,227,,-52,-272,-376,,183,-585,-182,,43,212,132,,,-1,,,,,
,-4000,,782,,-172,-151,-671,,258,-281,-65,,544,256,-122,,,,,,,,
,-3000,12,113,,180,-20,197,,258,58,,,395,245,-216,,,2,,,,,
,2000,-10,-202,,-18,-47,263,,237,-259,153,,25,15,-199,,,8,,,,,
,-2000,-2,-353,,-150,-175,-216,,-188,-90,-11,,-145,-175,-98,,,-14,,,,,
,-1000,5,-779,,-325,-190,-485,,-412,407,-154,,-241,-127,192,,,-8,,,,,
,,,-353,,-307,-192,-297,,-282,481,-248,,-297,-238,128,,,16,,,,,
,1000,2,-96,,-350,-72,119,,-143,-170,-223,,-157,-136,195,,,-7,,,,,
,-1000,-1,201,,-83,159,1235,,-118,-181,-72,,-364,-93,-328,,,3,,,,,
,,4,17,,255,195,-674,,-46,-45,-10,,-96,-126,-217,,,-3,,,,,
,,,370,,634,580,-268,,150,83,302,,146,12,293,,,3,,,,,
,4000,1,619,,764,594,999,,302,197,300,,314,-52,320,,,-6,,,,,
,-3000,,215,,512,581,751,,296,430,451,,402,100,462,,,-1,,,,,
,-1000,2,121,,56,275,245,,-259,-5,392,,-193,-85,461,,,12,,,,,
,,1,197,,-263,-80,8,,-119,-26,40,,-211,-142,19,,,-18,,,,,
,,,-129,,7,-12,86,,297,450,63,,249,151,86,,,1,,,,,
,,2,-813,,-297,-369,1,,73,-224,-235,,-86,86,50,,,12,,,,,
,,4,-442,,-643,-469,-513,,-31,-414,-402,,-12,-175,-277,,,18,,,,,
,,-4,10,,-599,-555,-451,,-281,-502,-468,,-505,-289,-659,,,-11,,,,,
,,4,226,,-526,-496,-755,,-226,-388,-418,,-346,-148,-354,,,3,,,,,
,,-1,32,,76,-174,-1034,,1,172,-210,,74,35,-40,,,-6,,,,,
,,2,-933,,79,-15,-377,,-108,-20,-127,,241,194,-105,,,,,,,,
,1000,,40,,176,297,671,,-189,43,-6,,-176,68,-222,,,1,,,,,
,6000,1,347,,397,425,611,,35,388,348,,70,63,81,,,,,,,,
,-3000,9,489,,252,215,176,,28,505,293,,-13,30,183,,,-1,,,,,
,6000,-1,39,,275,-23,-3,,88,362,100,,-15,-93,-104,,,4,,,,,
,-4000,20,-437,,131,-174,-262,,125,299,-236,,232,-84,-39,,,,,,,,
,-3000,-15,-611,,-105,-317,-115,,-42,-253,-225,,-191,-181,-132,,,-10,,,,,
,-2000,-5,201,,-280,-173,342,,-164,-198,1,,-163,87,-165,,,10,,,,,
,-1000,,270,,-451,-181,-690,,-152,121,-67,,-155,-22,-143,,,3,,,,,
,,,62,,-379,-162,-219,,-230,-157,-168,,-481,-106,-26,,,-2,,,,,
,,3,55,,70,71,-137,,-135,-81,31,,-125,-74,-46,,,,,,,,
,5000,1,290,,157,209,32,,-3,-84,41,,-200,28,-120,,,-4,,,,,
,-4000,1,-177,,52,135,467,,151,-223,170,,-45,84,138,,,1,,,,,
,2000,1,22,,333,109,470,,202,153,308,,231,117,-20,,,-15,,,,,
,-3000,-1,423,,14,24,409,,150,174,247,,99,169,-495,,,15,,,,,
,3000,2,-93,,186,108,146,,285,255,230,,468,79,-25,,,4,,,,,
,2000,4,-79,,301,250,118,,110,209,-40,,508,-164,177,,,-16,,,,,
,23000,-1,114,,-66,275,594,,-15,172,151,,-59,-170,237,,,1,,,,,
,,3,400,,45,180,-160,,40,43,128,,95,-100,-69,,,5,,,,,
,-4000,1,332,,239,24,-285,,-147,17,-24,,-287,-124,-303,,,,,,,,
,-4000,-1,-37,,321,135,45,,-98,140,-114,,-134,105,194,,,-11,,,,,
,-3000,5,2,,353,181,37,,380,264,170,,9,405,454,,,6,,,,,
,-4000,-3,-114,,-353,-246,-481,,11,-171,-76,,-415,53,117,,,6,,,,,
,-3000,-2,-260,,-478,-383,-71,,-272,-400,-251,,-20,-90,-433,,,2,,,,,
,-3000,4,262,,-302,-62,-5,,-326,-547,-166,,-214,77,-373,,,-3,,,,,
36,201000,144045,-568,,305,-135,46,,-583,-62,52,,1,-364,844,,,,,,,,
,-4000,-1,10,,-157,137,-160,,63,192,170,,-529,-70,177,,,-2,,,,,
,-4000,2,24,,-347,-144,-263,,-98,102,-192,,-305,-260,-8,,,,,,,,
,-3000,1,-191,,215,-95,342,,-11,117,-107,,-49,-73,-145,,,-3,,,,,
,-4000,2,-205,,284,-42,520,,39,18,-15,,-18,281,-45,,,-5,,,,,
,-3000,2,155,,157,40,-130,,40,-130,2,,173,79,-57,,,10,,,,,
,-2000,,-140,,-185,-62,-675,,-93,-221,-103,,162,40,-436,,,-2,,,,,
,-4000,,126,,-468,-252,-314,,-217,-408,-202,,-28,-70,-579,,,7,,,,,
,-4000,3,-153,,-211,-229,-350,,-74,-245,-90,,108,9,303,,,-10,,,,,
,-3000,-1,-303,,-47,-110,403,,-31,214,-30,,68,-145,430,,,-4,,,,,
,-2000,4,-537,,256,130,266,,-40,131,24,,-245,-269,-22,,,,,,,,
,-3000,-1,180,,168,510,137,,55,121,162,,81,66,124,,,7,,,,,
,-4000,4,1237,,76,420,396,,92,148,319,,192,218,-66,,,7,,,,,
,-4000,-1,115,,-73,-231,-427,,-118,-124,-57,,24,-29,-297,,,8,,,,,
,-4000,2,-268,,-92,-284,-473,,32,-125,-88,,-4,40,84,,,,,,,,
,-3000,,-690,,-220,-179,-64,,-109,-344,-182,,310,-198,-150,,,-17,,,,,
,2000,1,-130,,77,81,445,,-17,110,-159,,-94,-59,71,,,,,,,,
,-4000,8,116,,344,209,324,,122,329,-70,,-3,76,246,,,10,,,,,
,-3000,-5,187,,296,233,-144,,110,61,136,,105,71,374,,,4,,,,,
,-4000,,527,,420,223,224,,637,12,236,,279,336,430,,,-8,,,,,
,2000,2,366,,170,-50,-253,,470,186,187,,309,232,188,,,-4,,,,,
,5000,2,-41,,16,-38,-68,,54,17,216,,392,136,10,,,11,,,,,
,-4000,,-219,,-74,-23,-201,,-221,-61,19,,-117,-44,-231,,,-13,,,,,
,-3000,1,-352,,-318,-172,-1,,-493,-237,-30,,-208,-163,-152,,,16,,,,,
,-1000,5,276,,-263,-136,173,,-220,-389,-47,,37,-234,93,,,-1,,,,,
,-3000,1,-347,,-327,-179,45,,-165,59,-24,,58,-215,-138,,,-1,,,,,
,1000,-3,-239,,-241,-103,-248,,-215,196,-18,,-330,-60,-217,,,-15,,,,,
,3000,1,-219,,-236,-49,-164,,-312,-129,-224,,-141,25,-197,,,3,,,,,
,-1000,1,-18,,147,210,627,,178,-26,53,,-41,-153,210,,,1,,,,,
,-2000,1,157,,375,241,601,,294,-13,58,,80,-125,79,,,-3,,,,,
,-1000,1,166,,215,168,-83,,346,5,104,,102,175,103,,,18,,,,,
,1000,3,634,,95,156,80,,140,201,193,,420,256,92,,,-10,,,,,
,-1000,,146,,68,-41,-131,,-66,-3,-21,,77,27,-139,,,-6,,,,,
,,,-801,,-22,-79,-27,,-100,-12,63,,-174,-145,-19,,,-8,,,,,
,1000,4,-398,,-495,-347,-324,,-265,-266,-65,,-220,-134,-42,,,-4,,,,,
,-1000,-1,41,,-248,-280,-326,,-234,-182,-269,,-383,-139,-115,,,22,,,,,
,1000,3,-15,,-46,-41,42,,-78,279,-103,,-55,-133,-88,,,-8,,,,,
,1000,-1,37,,150,203,71,,-22,280,77,,31,-79,-106,,,6,,,,,
,-2000,3,-179,,148,3,-163,,-188,-108,-51,,-143,12,-38,,,,,,,,
,1000,1,39,,-233,-188,-173,,-118,-238,-250,,-73,16,-7,,,-3,,,,,
,-1000,-1,339,,-161,14,134,,200,93,48,,349,153,72,,,-3,,,,,
,8000,1,696,,461,419,291,,435,216,238,,471,114,164,,,6,,,,,
,-4000,-1,10,,374,530,456,,359,286,230,,91,64,-308,,,-1,,,,,
,-3000,12,-409,,21,166,326,,52,17,183,,92,88,-124,,,-6,,,,,
,3000,-7,-302,,-304,-363,-734,,-161,-398,-130,,-184,14,187,,,,,,,,
,-3000,1,-56,,-335,-366,-790,,5,-240,-198,,-115,-12,119,,,-9,,,,,
,12000,1,324,,-60,-113,-122,,23,-243,-133,,198,271,58,,,1,,,,,
,6000,,257,,8,-105,299,,-86,-210,-99,,-146,115,-105,,,11,,,,,
,-4000,3,-39,,324,-36,66,,-45,-80,-15,,-198,-28,105,,,5,,,,,
,-3000,1,28,,-60,-96,-156,,-234,-178,-136,,-55,-57,-199,,,4,,,,,
,-4000,,-486,,-229,-50,45,,-318,78,32,,27,-217,-14,,,2,,,,,
,-3000,1,110,,-103,214,390,,-67,206,144,,5,-190,164,,,2,,,,,
,-4000,13,-471,,-25,29,123,,33,83,127,,-312,-85,-85,,,-15,,,,,
,-1000,-9,-1015,,-2,-65,-462,,261,139,-107,,139,213,186,,,-3,,,,,
,1000,1,686,,350,41,-305,,343,163,-75,,185,163,114,,,-1,,,,,
,-1000,-4,1470,,410,72,340,,105,90,76,,148,96,5,,,4,,,,,
,3000,7,-222,,-253,-173,-118,,-195,-153,-2,,-70,-224,-318,,,3,,,,,
,-3000,,-389,,-548,-236,-287,,-258,-130,-60,,-319,-251,-709,,,,,,,,
,5000,1,-224,,-167,-168,-123,,-134,-8,-100,,-356,-268,-147,,,3,,,,,
,-3000,-2,-431,,-83,-34,-60,,-171,256,-13,,-125,-120,212,,,-3,,,,,
,-2000,4,-45,,47,-41,-181,,-71,18,6,,238,-75,78,,,,,,,,
,2000,3,46,,323,-13,260,,75,-174,135,,302,-37,-31,,,3,,,,,
,-1000,7,124,,251,99,-116,,147,-340,195,,284,27,441,,,-2,,,,,
,-1000,-7,403,,-88,27,-101,,-70,-162,-155,,-164,-132,222,,,13,,,,,
,,3,237,,73,88,283,,-14,56,27,,-98,,-43,,,-3,,,,,
,,,402,,410,364,308,,315,414,136,,89,148,153,,,-3,,,,,
,1000,2,-22,,182,286,319,,312,254,23,,118,48,-90,,,-8,,,,,
,-1000,,188,,-158,236,206,,345,66,-36,,214,147,84,,,,,,,,
,1000,-1,-157,,-95,-6,19,,200,-110,-151,,130,126,-26,,,1,,,,,
,17000,5,-335,,-19,-140,-57,,-134,-224,-139,,174,28,-190,,,-6,,,,,
,-2000,,-597,,-146,-377,-293,,-261,-164,-214,,105,110,-11,,,,,,,,
,-4000,1,-272,,-157,-220,221,,-71,-383,-183,,-176,15,70,,,7,,,,,
,-4000,2,231,,-47,-4,-563,,-43,-43,-43,,-109,-197,-32,,,3,,,,,
,-4000,6,-38,,-465,-224,-636,,-332,-42,-133,,-142,-163,-358,,,-10,,,,,
,2000,4,315,,-375,-220,100,,-350,39,-78,,-100,-58,161,,,1,,,,,
,-4000,-7,24,,-160,-217,244,,-84,-8,17,,10,-17,249,,,,,,,,
,-2000,3,-599,,36,5,-151,,209,-128,231,,-20,229,37,,,8,,,,,
,11000,-1,330,,389,143,127,,89,52,234,,-133,206,147,,,-12,,,,,
,-4000,2,368,,147,121,321,,166,136,144,,54,135,146,,,7,,,,,
,-4000,,-488,,38,69,103,,133,64,-27,,94,-27,319,,,3,,,,,
,-3000,3,-160,,205,240,251,,183,99,-5,,130,-98,125,,,-14,,,,,
,,1,767,,299,430,507,,336,316,254,,230,50,-76,,,5,,,,,
,3000,1,713,,131,320,434,,125,338,149,,65,53,-103,,,-4,,,,,
,15000,,-106,,-101,190,45,,-131,-90,70,,-127,-67,29,,,9,,,,,
,-3000,4,-155,,76,119,-169,,-14,-60,22,,26,-138,37,,,-1,,,,,
,-4000,1,-98,,155,-37,-369,,-96,60,-88,,-163,-108,-41,,,-5,,,,,
,-3000,,-692,,-301,-257,-547,,-154,21,-158,,82,-113,103,,,1,,,,,
,-4000,,-478,,-367,-265,-69,,-264,-44,-125,,10,55,-133,,,-6,,,,,
,-2000,59,-198,,-323,-329,66,,-367,-176,-111,,-163,-222,-264,,,6,,,,,
,-2000,-55,152,,26,26,-99,,-225,-269,-36,,-80,-217,74,,,5,,,,,
,,,325,,80,66,-221,,69,184,-84,,-83,-81,289,,,,,,,,
,,3,-72,,69,133,710,,210,110,164,,16,-4,92,,,-1,,,,,
,,,533,,11,-95,-405,,345,-117,16,,-10,250,72,,,,,,,,
,,3,27,,40,-169,-742,,105,-270,-177,,42,266,48,,,6,,,,,
,,,-613,,132,-104,503,,45,-444,-36,,210,28,-76,,,-8,,,,,
,7000,28,-169,,-168,-159,239,,-80,-162,14,,379,-40,-115,,,9,,,,,
,-3000,-2,-66,,-66,33,160,,133,205,191,,191,-30,287,,,2,,,,,
,5000,24,484,,-56,-54,-208,,-222,103,-36,,-311,-202,-128,,,-16,,,,,
,-3000,-19,389,,-220,-34,-14,,-300,215,78,,-239,66,-63,,,-1,,,,,
,-4000,-1,163,,186,2,-230,,-272,70,80,,-35,154,-65,,,10,,,,,
,-2000,,390,,152,-59,112,,-261,22,-44,,65,96,129,,,1,,,,,
,,3,-62,,10,-40,9,,157,112,53,,33,111,233,,,-7,,,,,
,1000,,51,,362,253,116,,195,-2,29,,67,66,187,,,4,,,,,
,26000,-1,-50,,-154,59,121,,188,-22,108,,248,202,69,,,3,,,,,
,-2000,1,-405,,-211,-199,-135,,-28,-221,-91,,191,13,-306,,,-7,,,,,
,-3000,,-284,,104,17,99,,338,229,149,,221,80,-57,,,4,,,,,
,-4000,3,155,,-59,132,252,,183,14,301,,-35,21,178,,,-7,,,,,
,-4000,2,507,,93,243,94,,94,-95,330,,-95,129,52,,,6,,,,,
,-3000,2,437,,302,407,535,,296,355,210,,15,100,-99,,,8,,,,,
,-4000,1,-462,,272,211,-61,,87,-2,53,,-131,-129,259,,,-3,,,,,
,-4000,23,-225,,269,173,534,,185,110,63,,287,-28,225,,,-5,,,,,
,-3000,3,873,,361,222,234,,350,485,216,,617,384,124,,,11,,,,,
,,-21,1327,,80,273,315,,205,373,265,,438,235,25,,,,,,,,
,,1,15,,240,207,434,,150,162,107,,215,-26,316,,,,,,,,
,,,-252,,484,299,174,,259,133,-10,,76,34,400,,,-10,,,,,
,,,275,,288,269,-45,,83,74,-79,,-32,47,155,,,2,,,,,
,1000,3,-68,,-235,17,-179,,-264,118,-72,,-115,11,37,,,3,,,,,
,2000,-1,-388,,-282,-38,99,,-183,-3,42,,-115,-71,-235,,,3,,,,,
,12000,16,-400,,-204,-140,81,,-125,20,141,,-232,231,-137,,,-8,,,,,
,-4000,-14,-136,,32,-216,42,,29,-37,-91,,202,223,382,,,4,,,,,
,-3000,-1,481,,-286,-315,-273,,-86,-181,-158,,72,-59,184,,,6,,,,,
,-4000,30,33,,-251,-97,-451,,-161,-93,17,,-162,-69,-87,,,2,,,,,
,5000,-3,-258,,-33,168,55,,-200,148,-22,,-171,99,-295,,,-16,,,,,
,1000,24,418,,415,508,805,,363,152,287,,22,295,186,,,3,,,,,
,12000,-41,-13,,298,289,226,,291,288,279,,75,348,377,,,20,,,,,
,-3000,21,-45,,586,115,-125,,41,155,74,,102,244,-128,,,-10,,,,,
,-4000,4,-392,,9,-73,-331,,143,-294,58,,101,129,-42,,,-13,,,,,
,-4000,-21,1227,,-404,-65,-72,,22,-137,8,,174,324,58,,,6,,,,,
,-3000,26,748,,-271,-14,75,,-88,-24,-102,,28,-65,183,,,-6,,,,,
,-4000,-26,-528,,115,-21,5,,-64,376,155,,35,-79,524,,,5,,,,,
,,,-817,,364,91,207,,212,410,162,,-1,-187,117,,,6,,,,,
,-3000,,97,,254,201,860,,245,74,218,,-40,7,-30,,,-2,,,,,
,1000,4,196,,119,119,-267,,90,92,160,,182,49,-130,,,-11,,,,,
,-2000,,127,,-243,-44,-599,,-49,13,42,,47,-117,240,,,-5,,,,,
,,3,-185,,-195,-37,217,,-40,-233,-111,,151,-155,290,,,1,,,,,
,3000,12,-375,,-19,-122,-40,,33,-293,-224,,385,-90,84,,,18,,,,,
,-3000,10,600,,1,-10,-94,,-52,182,-162,,186,83,-249,,,-6,,,,,
,,-20,534,,419,341,618,,4,358,114,,-37,174,-472,,,4,,,,,
,2000,3,-784,,355,163,233,,110,40,51,,-191,-72,-437,,,-2,,,,,
,-2000,1,-151,,176,136,-314,,-44,52,183,,-170,15,295,,,2,,,,,
,,-4,738,,-16,66,234,,233,91,194,,-27,169,116,,,-1,,,,,
,,7,-67,,-454,-214,-140,,161,-72,77,,14,211,-61,,,,,,,,
,,,-35,,9,-204,191,,-1,-61,86,,160,222,145,,,-10,,,,,
,,,168,,84,-102,266,,-46,192,59,,25,163,65,,,,,,,,
39,220000,156048,-1080,,-384,268,-154,,-765,322,-113,,-765,-358,-969,,,16,,,,,
,-3000,-3,333,,-34,292,509,,-154,249,241,,95,232,421,,,-1,,,,,
,-2000,4,637,,233,295,-209,,180,7,-4,,327,188,172,,,,,,,,
,-1000,,249,,186,-25,-226,,227,-211,-219,,57,-76,-88,,,-19,,,,,
,-4000,3,268,,4,-216,-84,,43,-283,-161,,-175,-131,-207,,,-3,,,,,
,-2000,-3,-320,,-28,-54,-72,,-63,220,-6,,-98,-117,-204,,,8,,,,,
,-4000,5,-461,,137,-129,-321,,-16,228,-38,,125,-238,-101,,,2,,,,,
,-3000,,-589,,-359,-359,-102,,-65,-77,-77,,90,-108,-109,,,6,,,,,
,-3000,-5,-284,,-479,-307,-45,,-38,-68,,,-91,66,-436,,,-4,,,,,
,-3000,5,466,,252,35,-41,,118,-208,62,,143,98,1,,,-1,,,,,
,-4000,4,968,,676,510,266,,432,-140,213,,467,172,560,,,-4,,,,,
,-3000,,527,,669,806,917,,637,30,378,,463,205,695,,,-4,,,,,
,-4000,,695,,442,451,579,,205,-54,158,,350,44,221,,,1,,,,,
,-3000,5,145,,-164,-29,-297,,-379,-169,-277,,-450,-15,-329,,,11,,,,,
,-3000,-2,-351,,-598,-241,-316,,-516,208,-252,,-645,35,-240,,,-6,,,,,
,-4000,2,-823,,-525,-418,-400,,-275,71,-140,,-12,-59,-210,,,-6,,,,,
,-3000,28,-466,,-27,-400,42,,-232,-502,-172,,-5,-136,-308,,,17,,,,,
,-4000,-28,-46,,-49,-415,-198,,32,-388,-160,,40,-165,140,,,-7,,,,,
,-3000,7,-211,,167,-24,-156,,299,17,104,,87,99,-149,,,,,,,,
,-4000,23,16,,224,51,-252,,259,240,51,,-41,70,-137,,,5,,,,,
,-4000,-22,52,,-388,-239,-24,,-288,-190,-251,,-397,-203,-538,,,5,,,,,
,,3,-100,,-202,45,390,,-130,163,-30,,-157,11,-139,,,-5,,,,,
,1000,-3,-303,,-7,157,45,,-65,408,119,,173,11,31,,,,,,,,
,,3,-48,,-123,168,272,,51,177,259,,319,123,158,,,-1,,,,,
,,1,557,,254,170,111,,147,-173,257,,-182,249,-223,,,-2,,,,,
,4000,1,449,,449,201,130,,180,-289,256,,310,320,31,,,-9,,,,,
,-2000,3,510,,665,430,-188,,285,165,253,,443,368,446,,,1,,,,,
,3000,-1,312,,650,582,401,,465,244,239,,140,198,13,,,11,,,,,
,-3000,1,-67,,-70,236,708,,146,163,-145,,-99,-356,-217,,,-3,,,,,
,-2000,22,-248,,-296,-199,167,,-576,152,-227,,-102,-369,-381,,,1,,,,,
,-1000,-17,-374,,-685,-493,-826,,-741,157,-386,,-126,-224,-424,,,-5,,,,,
,,,-764,,-467,-270,-550,,-291,208,-232,,-263,-181,-78,,,-6,,,,,
,1000,1,-290,,-252,-299,-358,,-173,-30,-148,,-460,-127,-248,,,5,,,,,
,2000,,126,,-266,-376,-473,,-50,-360,-43,,-86,26,48,,,-2,,,,,
,-1000,3,-321,,-82,-234,-44,,-7,-494,-51,,-189,-84,-237,,,7,,,,,
,-2000,,-71,,-101,-68,379,,90,-549,17,,135,90,60,,,-2,,,,,
,,,856,,90,-3,466,,479,-277,110,,498,196,387,,,-7,,,,,
,,2,227,,479,286,222,,534,69,178,,422,220,438,,,1,,,,,
,,-3,-142,,355,245,-55,,275,477,66,,-6,81,199,,,8,,,,,
,7000,3,-285,,-343,-20,42,,-152,515,-81,,-162,-17,106,,,-4,,,,,
,-4000,,314,,-199,-21,-481,,-91,283,74,,-105,20,-145,,,,,,,,
,2000,27,371,,-62,55,-31,,-3,202,353,,-7,-28,282,,,5,,,,,
,3000,-24,496,,535,408,657,,110,148,443,,673,90,415,,,-1,,,,,
,-2000,1,-276,,541,160,-214,,-8,-387,208,,251,157,301,,,-2,,,,,
,-3000,3,-479,,403,57,142,,-85,-622,154,,95,35,463,,,5,,,,,
,-3000,,-130,,-288,-108,-113,,-175,-448,-189,,-129,-9,-43,,,-9,,,,,
,2000,,450,,-285,-95,313,,-90,141,-236,,154,160,-46,,,-9,,,,100,
,1000,2,-5,,-490,-274,-210,,-229,157,-323,,-325,-185,-436,,,17,,,,-100,
,-2000,3,-385,,-490,-332,-517,,57,102,-463,,-492,-181,-273,,,-4,,,,,
,-1000,,-621,,-367,-431,-388,,-28,86,-536,,-466,-414,-559,,,,,,,,
,3000,1,-202,,-67,-39,-150,,-120,268,-248,,-229,-151,-210,,,4,,,,,
,,,430,,247,358,340,,256,156,71,,335,106,-105,,,-6,,,,,
,3000,3,-202,,289,312,194,,242,-189,209,,452,170,188,,,1,,,,,
,-3000,1,209,,300,201,334,,-106,-518,298,,-32,229,124,,,-3,,,,,
,-2000,,-48,,173,23,-213,,-79,-123,217,,-86,134,-86,,,10,,,,,
,,,168,,38,-244,-422,,-28,176,27,,160,71,284,,,-6,,,,,
,-1000,3,-442,,-516,-498,-171,,-190,-10,-259,,-458,-159,-121,,,-6,,,,,
,,,-603,,-546,-353,-399,,-202,-282,-88,,-279,-226,-169,,,4,,,,,
,1000,2,376,,-135,-100,-6,,23,209,148,,-76,-234,-65,,,9,,,,,
,-1000,,529,,40,20,245,,-330,87,10,,-351,-272,-194,,,3,,,,,
,1000,-2,427,,387,401,410,,-40,171,228,,320,171,104,,,-6,,,,,
,,4,245,,55,419,-10,,389,260,294,,517,252,474,,,-12,,,,,
,-1000,2,334,,265,320,453,,517,300,249,,350,185,425,,,,,,,,
,1000,,-21,,348,145,429,,147,-174,-161,,137,-179,-79,,,3,,,,,
,1000,4,-183,,77,-13,-101,,-47,-226,-212,,-332,-342,-175,,,-5,,,,,
,1000,-1,-457,,-235,-134,-73,,-256,83,-154,,-310,-200,-544,,,,,,,,
,4000,1,138,,-104,-78,-11,,-114,387,-124,,-324,-112,-380,,,15,,,,,
,,,-231,,83,9,-196,,71,5,-76,,-27,-13,334,,,-5,,,,,
,-4000,23,80,,-195,-144,-169,,-123,-337,21,,210,-8,-102,,,6,,,,,
,,-12,458,,-8,16,-50,,10,-186,305,,225,237,198,,,4,,,,,
,,14,316,,178,12,156,,223,-128,162,,262,271,672,,,-13,,,,,
,-2000,-20,75,,408,85,74,,211,164,-7,,199,99,268,,,,,,,,
,,,-183,,-81,133,-77,,248,241,22,,113,-4,-123,,,4,,,,,
,-1000,4,-520,,-219,-177,-278,,-63,115,-66,,-226,9,-222,,,,,,,,
,,,-1068,,-307,-303,-239,,-219,-203,-121,,-319,-192,-450,,,-4,,,,,
,,,-7,,-290,-228,-95,,-304,-103,-126,,-203,-53,-303,,,-8,,,,,
,3000,,753,,204,92,-83,,-55,-159,-14,,278,112,-3,,,11,,,,,
,,4,27,,375,448,660,,343,-104,383,,422,394,323,,,-6,,,,,
,3000,2,424,,170,430,345,,337,-88,202,,250,378,125,,,5,,,,,
,-3000,-2,868,,-215,113,-71,,40,-225,-188,,-254,179,56,,,6,,,,,
,-1000,12,-381,,-479,-361,-78,,-347,-363,-480,,-445,-287,188,,,-1,,,,,
,-2000,-7,-1186,,-583,-521,-397,,-415,113,-482,,-456,-178,-314,,,,,,,,
,11000,,-428,,-136,-521,-421,,-484,351,-364,,-677,-268,-440,,,-10,,,,,
,28000,2,-178,,-2,-328,-369,,-240,214,-61,,-225,-191,-94,,,8,,,,,
,-3000,1,-607,,-182,-25,-274,,-4,244,168,,126,102,151,,,4,,,,,
,-4000,1,118,,188,182,133,,39,-16,216,,-209,-32,191,,,-15,,,,,
,-4000,,378,,50,128,503,,131,-278,136,,-199,-178,-28,,,8,,,,,
,-4000,4,440,,71,70,-271,,-166,-123,-17,,229,-260,158,,,13,,,,,
,-3000,,-390,,57,190,324,,-9,488,222,,191,-24,172,,,-6,,,,,
,-4000,-4,-147,,-34,188,295,,-6,367,254,,316,-70,-136,,,-4,,,,,
,-4000,7,1049,,-102,-40,-116,,98,-30,118,,-27,50,181,,,2,,,,,
,-3000,,-26,,78,-248,-103,,-27,-143,-32,,118,50,67,,,-2,,,,,
,-4000,2,-142,,164,-145,240,,62,-106,97,,283,2,-13,,,5,,,,,
,9000,21,-143,,-152,-17,60,,24,-370,31,,96,92,-156,,,5,,,,,
,-3000,-17,-161,,209,118,30,,149,-76,107,,157,229,324,,,2,,,,,
,-4000,,-195,,163,-40,-127,,90,68,-16,,36,86,-245,,,-9,,,,,
,-3000,,461,,23,151,-200,,242,305,-146,,150,3,-14,,,1,,,,,
,-3000,-4,566,,-176,34,82,,72,372,-146,,-258,-94,-136,,,-2,,,,,
,-2000,8,3,,114,132,-115,,78,161,-15,,-182,-107,-327,,,-13,,,,,
,2000,1,-52,,285,287,191,,87,122,186,,-80,-134,75,,,7,,,,,
,-2000,,376,,80,341,277,,-197,54,346,,51,82,473,,,1,,,,,
,1000,3,154,,-152,119,253,,-245,12,161,,-155,-113,247,,,-2,,,,,
,1000,,134,,114,163,-31,,-76,196,47,,15,31,172,,,-5,,,,,
,-1000,-1,28,,200,68,-249,,314,-105,-89,,-90,-8,-205,,,10,,,,,
,,2,-242,,150,-131,-28,,-5,-164,-109,,-23,-91,152,,,-5,,,,,
,,,-319,,-124,-209,85,,-62,-114,8,,147,29,-54,,,2,,,,,
,-1000,4,-195,,-254,-431,-543,,9,-347,-199,,186,11,-202,,,-2,,,,,
,1000,,-42,,-442,-215,-457,,,-279,90,,126,194,52,,,10,,,,,
,,,-43,,37,111,-181,,242,60,202,,121,131,133,,,-4,,,,,
,-1000,,65,,228,279,746,,28,124,204,,-65,203,30,,,4,,,,,
,1000,5,433,,-98,201,303,,63,-157,66,,177,48,145,,,-7,,,,,
,,,-37,,155,-53,-166,,2,-147,-13,,-75,19,294,,,4,,,,,
,,3,-588,,25,-189,-297,,81,-191,-323,,-4,-30,-15,,,7,,,,,
,-1000,,580,,-10,73,423,,247,128,98,,230,50,-12,,,-9,,,,,
,2000,-1,579,,-191,-46,165,,-158,94,88,,-131,-85,231,,,5,,,,,
,2000,2,-207,,190,40,24,,-72,143,60,,-207,47,64,,,-1,,,,,
,5000,,-180,,420,6,403,,252,-84,60,,87,17,-250,,,-7,,,,,
,-3000,3,-155,,-209,-144,-285,,188,-193,-163,,69,-79,-288,,,6,,,,,
,-4000,1,-63,,-266,-108,31,,-98,61,56,,-169,-29,341,,,-13,,,,,
,9000,,350,,309,120,-254,,288,42,237,,475,137,602,,,8,,,,,
,-4000,4,411,,522,136,-56,,322,134,183,,249,84,69,,,-3,,,,,
,-4000,,135,,33,159,57,,-37,14,51,,-23,-144,-146,,,-6,,,,,
,-2000,24,-50,,-133,62,32,,49,191,70,,260,-113,-138,,,6,,,,,
,-1000,-20,189,,131,222,416,,15,252,161,,96,168,-251,,,-7,,,,,
,,,-302,,69,106,16,,-57,-84,27,,-379,-57,-216,,,2,,,,,
,3000,1,-1037,,-118,-124,54,,-97,-62,-150,,-362,-26,-111,,,10,,,,,
,-2000,1,4,,107,-41,-185,,-110,-30,-166,,-286,-22,-11,,,7,,,,,
,,2,1218,,479,291,303,,239,55,109,,-27,-11,139,,,-8,,,,,
,,2,516,,182,175,262,,287,102,-21,,-135,3,-200,,,-4,,,,,
,2000,-5,-586,,-169,6,33,,126,181,-139,,-196,-41,-158,,,-1,,,,,
,-2000,5,-264,,-177,-29,-16,,-60,-4,-193,,28,-161,19,,,-1,,,,,
,-1000,4,-110,,-48,3,77,,-193,-185,-119,,68,41,154,,,-3,,,,,
,1000,,-191,,-18,-108,-115,,-124,28,-111,,123,200,311,,,-5,,,,,
,-1000,,190,,-9,5,-112,,83,48,87,,-50,111,-113,,,1,,,,,
,10000,3,-59,,-99,-100,-355,,125,31,84,,227,-7,-144,,,13,,,,,
,-2000,1,-287,,-222,-247,-106,,-164,1,46,,264,57,98,,,-1,,,,,
,-4000,,-428,,-195,-196,-440,,-283,-180,-151,,-226,-138,273,,,-3,,,,,
,-3000,,357,,-120,16,2,,94,200,16,,-105,-1,352,,,3,,,,,
,-1000,-1,-92,,113,64,252,,7,103,89,,-31,-11,52,,,4,,,,,
,1000,6,-61,,94,-37,-16,,-183,-330,-20,,,-41,-156,,,,,,,,
,,3,23,,1,-71,-46,,-136,-88,41,,90,159,-36,,,-6,,,,,
,11000,-8,-58,,72,-119,-64,,140,107,159,,253,51,154,,,1,,,,,
,4000,11,522,,212,90,498,,318,212,151,,262,86,-49,,,12,,,,,
,-4000,1,212,,-160,64,141,,157,286,101,,180,27,-175,,,-6,,,,,
,-4000,1,-378,,-285,-9,-70,,60,87,-38,,-30,-207,-300,,,6,,,,,
,-1000,,185,,-360,-213,-233,,-396,-24,-183,,-405,-336,-58,,,-2,,,,,
35,201000,140020,-158,,1200,1222,582,,343,456,271,,-547,-291,-296,,,-22,,,,,
,-4000,1,397,,-95,73,356,,179,-121,95,,271,210,427,,,13,,,,,
,-4000,-1,63,,,34,47,,4,54,89,,387,269,386,,,9,,,,,
,-3000,1,-207,,-133,-32,-72,,-169,99,76,,45,144,64,,,,,,,,
,-4000,,-37,,-133,-54,-72,,-162,122,-12,,-335,-50,-41,,,-12,,,,,
,-3000,1,-241,,159,50,95,,23,-156,49,,322,117,-339,,,-2,,,,,
,-4000,-1,-282,,-103,-100,174,,27,-352,-113,,182,-40,-239,,,6,,,,,
,-3000,1,-40,,-87,-204,-575,,-41,-133,-188,,-89,-106,-279,,,-1,,,,,
,-4000,5,565,,282,26,-356,,34,35,-3,,289,148,95,,,3,,,,,
,-4000,1,619,,146,108,80,,-37,86,188,,-138,165,30,,,-1,,,,,
,-3000,2,-600,,-497,-226,72,,-220,-118,-69,,-327,-170,-386,,,-6,,,,,
,-4000,2,-559,,-384,-257,113,,-131,8,-33,,-310,-175,102,,,4,,,,,
,-3000,,-168,,-116,36,107,,122,67,96,,-4,-115,125,,,-10,,,,,
,-4000,2,232,,25,-147,-345,,-157,-310,-139,,43,-189,5,,,4,,,,,
,-3000,-1,398,,-63,-290,-242,,-113,-99,-284,,,-184,-333,,,13,,,,,
,-4000,13,87,,-18,-151,-34,,21,,-15,,213,179,256,,,-1,,,,,
,-4000,-2,7,,281,67,405,,157,167,190,,381,303,136,,,4,,,,,
,-2000,8,108,,360,69,161,,78,130,148,,-68,122,-170,,,-18,,,,,
,-3000,-13,77,,-167,-31,188,,-118,79,-16,,-337,-168,-117,,,11,,,,,
,-4000,2,176,,24,173,-70,,-145,-167,75,,107,-141,-155,,,8,,,,,
,,,-233,,142,174,162,,105,-115,130,,166,171,-45,,,-7,,,,,
,,,-742,,-220,-203,-452,,-33,218,-130,,91,-211,,,,-12,,,,,
,,2,-328,,-177,-131,-51,,-22,177,-228,,60,-101,171,,,,,,,,
,-1000,,575,,65,137,390,,57,15,-9,,133,14,-78,,,7,,,,,
,4000,4,-155,,-103,4,-594,,-209,30,-56,,-17,-16,-260,,,,,,,,
,-3000,,-352,,15,-26,-252,,-91,-43,-29,,-351,-33,-136,,,6,,,,,
,-1000,2,-117,,-82,-54,171,,-42,-171,-201,,-177,-15,304,,,-4,,,,,
,3000,1,292,,155,360,255,,154,71,101,,28,135,772,,,6,,,,,
,-3000,,238,,317,379,226,,123,355,302,,194,297,330,,,-6,,,,,
,1000,3,242,,52,4,-33,,76,-69,30,,147,-78,217,,,,,,,,
,2000,,56,,-356,-79,201,,10,-116,-152,,372,-68,50,,,,,,,,
,,3,221,,-18,116,27,,304,116,120,,329,126,-32,,,4,,,,,
,-2000,10,129,,227,233,347,,78,-14,151,,-63,148,-238,,,-6,,,,,
,,-9,166,,118,35,-89,,-48,-20,-108,,-108,-168,-35,,,-5,,,,,
,,1,281,,-1,28,-221,,-20,-67,-45,,162,-142,-119,,,11,,,,,
,,2,-318,,-192,8,652,,-85,-7,57,,43,-40,-168,,,-2,,,,,
,5000,2,-448,,131,165,-94,,183,-25,62,,549,183,176,,,-10,,,,,
,4000,-1,360,,599,93,-321,,180,13,18,,328,128,38,,,11,,,,,
,13000,,498,,283,41,201,,119,73,92,,-246,-113,-315,,,4,,,,,
,-4000,2,481,,-201,-15,67,,-104,-8,70,,-286,-236,81,,,-5,,,,,
,-3000,1,243,,-84,5,113,,-106,-90,-16,,-331,-82,-77,,,7,,,,,
,-2000,3,-257,,-185,-200,17,,-232,-65,-36,,-272,-51,-116,,,6,,,,,
,-4000,-1,-454,,-156,-324,-180,,-205,-28,-166,,-93,73,-117,,,-7,,,,,
,-3000,10,-93,,-133,-188,11,,-79,-112,-120,,-147,24,2,,,-12,,,,,
,-3000,2,342,,4,-80,-9,,59,-8,-150,,-18,236,-45,,,7,,,,,
,-4000,-8,-91,,115,-7,-141,,246,-158,44,,-54,102,223,,,-4,,,,,
,1000,2,-379,,-243,-141,-57,,12,-145,15,,-26,37,17,,,-10,,,,,
,,-3,92,,-239,-84,-249,,10,61,-184,,412,-97,-130,,,17,,,,,
,3000,6,711,,231,121,35,,265,100,41,,291,-114,-404,,,5,,,,,
,-3000,2,413,,170,262,583,,207,130,207,,-158,-56,143,,,-5,,,,,
,-1000,,-103,,288,329,156,,178,248,279,,-196,93,216,,,8,,,,,
,1000,,153,,349,335,-261,,163,299,178,,371,142,380,,,-6,,,,,
,,-2,644,,217,323,227,,9,72,49,,457,10,343,,,13,,,,,
,3000,5,478,,-76,-22,123,,-269,-45,-226,,-44,-160,106,,,-12,,,,,
,-2000,,-244,,-123,-128,-84,,-130,90,-61,,-375,35,-81,,,-6,,,,,
,-2000,2,67,,-231,-254,-346,,-210,-37,-262,,-329,36,-217,,,-5,,,,,
,1000,,-184,,-76,-142,-21,,-46,-90,-208,,-58,24,-41,,,3,,,,,
,1000,3,162,,-34,45,101,,-101,-470,-212,,-133,-59,-207,,,-1,,,,,
,-1000,2,177,,194,54,143,,-159,-345,63,,-153,-76,30,,,-3,,,,,
,2000,,787,,272,106,112,,-14,-155,243,,115,115,285,,,5,,,,,
,-2000,6,853,,153,45,316,,-22,83,180,,60,251,525,,,-14,,,,,
,,-2,558,,51,117,604,,206,95,187,,336,290,-118,,,6,,,,,
,3000,,216,,-69,34,218,,156,-62,-142,,108,-48,-671,,,3,,,,,
,16000,2,185,,-27,-100,-925,,-80,-224,-128,,-207,-226,-255,,,-1,,,,,
,-4000,-1,262,,45,-127,-235,,-2,133,-74,,-202,-254,-356,,,3,,,,,
,-3000,5,820,,143,-43,120,,122,126,-178,,-272,-147,-414,,,2,,,,,
,-4000,-1,574,,-15,52,143,,15,82,25,,-37,-66,-94,,,-5,,,,,
,-3000,3,188,,-120,178,468,,-116,-21,380,,227,35,230,,,7,,,,,
,-3000,,996,,6,135,421,,-114,-4,325,,-183,131,-30,,,-3,,,,,
,-1000,1,811,,386,164,445,,109,79,109,,-38,-97,52,,,1,,,,,
,,2,260,,162,-80,150,,-55,162,-146,,-4,-226,40,,,-4,,,,,
,-1000,,616,,75,-170,-587,,-27,94,-160,,-175,-113,7,,,2,,,,,
,,-2,724,,-220,-225,-529,,-195,-16,-95,,-62,72,-204,,,5,,,,,
,3000,6,779,,-234,-142,-160,,-111,-23,-122,,-68,341,69,,,2,,,,,
,-3000,,889,,134,38,133,,63,-57,29,,-21,228,237,,,-9,,,,,
,2000,12,497,,361,142,436,,52,-280,-92,,8,-71,149,,,-1,,,,,
,-2000,-3,221,,328,286,434,,248,-140,-4,,298,26,227,,,-1,,,,,
,1000,2,664,,301,404,-133,,233,432,124,,452,131,200,,,6,,,,,
,1000,,1107,,373,480,-14,,192,471,185,,169,28,-217,,,12,,,,,
,-2000,,557,,21,286,133,,-100,250,33,,-286,-112,-162,,,-5,,,,,
,,,-113,,-469,-136,504,,-285,-63,-312,,-392,-272,90,,,-4,,,,,
,2000,-1,193,,-65,7,383,,-5,22,127,,-11,120,188,,,-4,,,,,
,-2000,1,-52,,33,-12,-239,,-110,-292,42,,-221,-8,-74,,,-1,,,,,
,,-1,108,,123,36,38,,45,-299,-8,,103,-87,-184,,,4,,,,,
,,2,38,,95,114,-24,,97,194,90,,-13,64,226,,,-4,,,,,
,1000,2,-769,,-247,-150,223,,13,223,-92,,11,-6,83,,,-3,,,,,
,-1000,1,-561,,-255,-185,-372,,-125,162,-30,,136,-131,-230,,,-8,,,,,
,,,-598,,114,-100,-584,,-104,27,-37,,-96,-83,-128,,,-1,,,,,
,2000,1,-533,,50,168,90,,206,191,241,,72,135,278,,,4,,,,,
,1000,2,-337,,-97,-171,-139,,12,35,-191,,-121,40,-3,,,-6,,,,,
,2000,1,-631,,-195,-146,96,,-87,-31,-54,,-289,-104,120,,,4,,,,,
,-3000,1,-672,,47,61,164,,145,85,131,,-42,52,189,,,2,,,,,
,,,-410,,50,-89,-238,,55,-31,25,,60,187,-200,,,13,,,,,
,-1000,3,-705,,-315,-311,-552,,63,-249,-119,,102,120,-210,,,,,,,,
,-1000,-1,-653,,-142,-237,-430,,47,-26,-44,,88,80,99,,,8,,,,,
,,2,-768,,-112,-315,-270,,-203,147,-31,,55,-165,45,,,-11,,,,,
,1000,3,-867,,-42,-200,204,,9,43,127,,118,-84,-88,,,-13,,,,,
,-2000,1,-657,,-22,13,740,,144,17,162,,-4,72,-389,,,8,,,,,
,2000,,-944,,-212,-61,-529,,-268,-198,-30,,-188,-84,-63,,,6,,,,,
,-2000,1,-518,,-232,-228,-466,,-324,-421,-237,,-242,-48,-8,,,1,,,,,
,3000,3,524,,75,3,-120,,235,-11,-124,,52,140,-112,,,5,,,,,
,-2000,4,61,,193,171,14,,215,216,-47,,70,132,-230,,,-5,,,,,
,2000,-2,-937,,-199,-85,-159,,-95,202,-202,,-163,-193,-299,,,-12,,,,,
,-2000,2,-504,,-179,-290,-622,,-179,-110,-294,,-283,-70,-342,,,10,,,,,
,1000,,-163,,-376,-431,-397,,-220,-320,-297,,-304,-318,-125,,,6,,,,,
,-1000,2,-82,,80,150,645,,169,-121,230,,336,247,206,,,-6,,,,,
,,1,-67,,427,369,782,,266,-175,436,,671,208,351,,,-2,,,,,
,8000,3,-290,,152,359,115,,-54,-238,175,,214,124,-134,,,-11,,,,,
,25000,,-446,,219,440,83,,35,204,136,,287,65,-434,,,18,,,,,
,-4000,1,-305,,48,193,-253,,30,210,-128,,83,-180,-12,,,5,,,,,
,-3000,,-135,,-261,-70,-172,,-94,244,-174,,-97,-150,92,,,-11,,,,,
,-4000,-1,-172,,-385,-180,-328,,-58,300,-99,,-62,-274,-267,,,-3,,,,,
,-3000,5,-547,,-307,-275,-303,,-50,79,-161,,-224,-154,-210,,,5,,,,,
,-4000,1,-84,,-138,-79,3,,63,20,49,,49,143,180,,,-5,,,,,
,-3000,,-267,,103,46,627,,33,-121,229,,174,140,88,,,2,,,,,
,-4000,4,-90,,205,109,401,,98,-70,177,,286,143,-50,,,,,,,,
,-3000,-1,-177,,193,101,-144,,52,76,28,,207,180,236,,,6,,,,,
,2000,11,-320,,7,65,90,,-7,131,-10,,-183,279,243,,,1,,,,,
,-1000,-10,589,,-223,-204,-107,,-209,-16,-155,,-498,-66,21,,,-8,,,,,
,-4000,3,-149,,-254,-373,-144,,-362,-17,-222,,-464,-217,-86,,,-7,,,,,
,-2000,2,-937,,-387,-430,-496,,-177,151,-113,,-171,-74,-12,,,10,,,,,
,,1,-578,,-1,-22,-152,,50,185,288,,258,127,521,,,-4,,,,,
,,-2,458,,624,276,297,,134,-43,327,,433,57,436,,,4,,,,,
,3000,6,345,,199,95,480,,5,-337,68,,-20,,122,,,1,,,,,
,-3000,-1,-81,,-285,13,-394,,124,23,-10,,-167,-74,-389,,,-1,,,,,
,,1,-277,,-396,-252,-388,,-63,-37,-233,,-181,65,-196,,,-2,,,,,
,4000,2,-164,,-259,-483,-255,,-241,-52,-439,,-289,-126,-300,,,5,,,,,
,-1000,3,-178,,90,-382,-150,,-164,138,-170,,-258,-241,-371,,,-1,,,,,
,,,-362,,31,-320,-805,,-134,-90,-175,,-13,-212,-369,,,-7,,,,,
,-2000,1,-190,,-126,-148,-99,,-34,-337,-191,,15,-119,-205,,,7,,,,,
,1000,-3,-368,,-10,128,537,,154,-124,72,,260,257,479,,,-5,,,,,
,-2000,5,710,,263,445,24,,271,-79,141,,324,293,645,,,-2,,,,,
,2000,3,403,,217,537,580,,311,-21,168,,281,159,198,,,15,,,,,
,-2000,4,-28,,-75,301,476,,-69,-29,175,,42,15,-352,,,-7,,,,,
,,-1,-391,,7,81,340,,-29,38,64,,46,-132,-357,,,-5,,,,,
,,-1,-471,,52,-116,-349,,-184,171,-59,,-183,-129,-200,,,13,,,,,
,,2,-380,,-304,-363,-880,,-206,84,-336,,-23,-222,-276,,,-14,,,,,
,,,38,,-35,-170,-244,,-38,109,-124,,-99,-151,-181,,,-5,,,,,
,,4,446,,-350,35,134,,-15,-55,267,,73,-78,200,,,6,,,,,
,9000,,190,,-30,199,382,,373,-97,412,,281,356,308,,,-6,,,,,
,-1000,1,49,,547,60,96,,381,-69,-63,,18,295,76,,,3,,,,,
,-4000,1,166,,-49,-244,-339,,181,102,-255,,66,-125,256,,,-4,,,,,
,7000,5,-344,,-534,-324,-160,,-298,-75,-207,,-143,-135,-22,,,12,,,,,
,-3000,4,-230,,-204,-38,382,,-232,-12,80,,-271,-60,-206,,,-7,,,,,
,-3000,-9,-230,,53,72,266,,-47,-41,242,,-121,162,143,,,2,,,,,
,-4000,5,19,,165,55,-102,,-28,-12,119,,-131,25,77,,,13,,,,,
37,213000,148050,-1049,,-176,-263,-432,,125,-824,-234,,258,-70,946,,,,,,,,
,-4000,,341,,168,39,123,,10,-69,110,,430,160,50,,,-7,,,,,
,-4000,2,-42,,80,-163,-82,,-10,25,-352,,-57,-135,-175,,,-2,,,,,
,-3000,,-47,,-3,-84,-704,,278,143,-285,,-40,-103,-136,,,-11,,,,,
,-4000,8,329,,2,57,-426,,162,82,58,,190,83,212,,,6,,,,,
,-3000,,144,,292,240,706,,63,239,119,,-262,36,-5,,,3,,,,,
,-4000,-1,-165,,66,164,-259,,-89,296,-56,,-443,-55,241,,,2,,,,,
,-4000,1,-46,,-92,97,381,,-7,120,-4,,-61,-110,17,,,-5,,,,,
,-3000,-2,221,,36,178,88,,21,-143,76,,312,14,-480,,,-4,,,,,
,-4000,1,195,,72,106,165,,-46,3,-5,,188,145,-332,,,7,,,,,
,-4000,,-215,,-27,-34,-36,,-125,46,-130,,-19,-10,84,,,1,,,,,
,-3000,,-200,,19,-232,-281,,-266,-135,-299,,-231,-180,-288,,,-7,,,,,
,-4000,3,1,,-406,-333,-636,,-152,-213,-153,,-148,-43,33,,,9,,,,,
,-3000,,29,,-538,-321,-36,,-96,-310,-63,,171,-147,498,,,5,,,,,
,-4000,1,359,,56,-19,143,,184,-170,70,,24,-133,412,,,-9,,,,,
,-4000,,169,,327,27,-51,,291,-55,95,,91,73,-124,,,-9,,,,,
,-3000,11,-627,,225,-147,-562,,50,101,65,,-82,27,-105,,,-1,,,,,
,-4000,4,-11,,144,68,473,,,399,223,,-230,52,105,,,8,,,,,
,-4000,-8,-140,,-36,91,560,,15,242,154,,-28,-121,172,,,-9,,,,,
,,-5,-406,,63,120,366,,54,236,92,,-30,112,21,,,7,,,,,
,,6,257,,-65,-32,-103,,-16,-248,41,,-135,175,-166,,,10,,,,,
,,,-111,,-204,-274,-490,,-329,-347,-32,,-242,66,-186,,,4,,,,,
,,1,-117,,11,-205,276,,-225,-95,109,,374,106,220,,,-5,,,,,
,1000,4,283,,-195,-85,-202,,63,-234,-145,,243,135,1,,,3,,,,,
,-1000,-2,114,,-42,41,145,,215,-125,-154,,151,41,-377,,,-5,,,,,
,,1,-433,,-71,-9,57,,204,198,-127,,299,-135,-229,,,5,,,,,
,2000,,-100,,255,157,-46,,155,318,-140,,-90,-201,-217,,,1,,,,,
,-2000,4,-88,,187,158,-326,,98,98,-120,,-191,-251,36,,,-5,,,,,
,,3,55,,80,198,-16,,-62,37,21,,-81,-111,150,,,,,,,,
,,,325,,276,357,619,,266,290,233,,132,200,229,,,2,,,,,
,,-1,232,,489,608,689,,403,325,589,,174,228,428,,,-11,,,,,
,4000,3,221,,114,424,202,,46,8,231,,-95,-8,39,,,12,,,,,
,-3000,1,268,,-105,35,34,,-125,29,80,,-149,-37,-160,,,-5,,,,,
,,1,-469,,-126,-259,-343,,-185,-48,-101,,-88,-6,251,,,-3,,,,,
,4000,-3,-512,,-167,-281,-736,,-249,-167,-350,,-17,-73,333,,,4,,,,,
,-3000,5,-178,,-227,-241,107,,-255,-85,-290,,-258,-41,-203,,,-7,,,,,
,-2000,3,301,,74,-21,394,,-151,-4,-218,,46,-157,-236,,,8,,,,,
,2000,1,891,,-455,-38,185,,-91,-39,-139,,259,105,-321,,,-1,,,,,
,-2000,3,583,,-179,-63,-800,,108,9,11,,158,174,140,,,-3,,,,,
,,-3,-71,,255,-140,-627,,158,-135,-85,,109,8,312,,,-1,,,,,
,,3,152,,89,34,140,,214,144,33,,16,23,-23,,,-6,,,,,
,7000,1,-314,,-85,-134,154,,33,118,-134,,-20,-259,-355,,,5,,,,,
,-2000,-1,-360,,36,-238,-379,,-75,-149,-129,,-24,-100,113,,,-8,,,,,
,-4000,4,-434,,-251,-286,-242,,-190,-234,13,,-217,-2,147,,,8,,,,,
,-1000,1,-255,,-253,108,645,,-59,86,226,,-142,312,561,,,6,,,,,
,3000,,,,-51,19,358,,-301,-11,153,,-429,47,280,,,4,,,,,
,-2000,1,47,,173,-75,-273,,-165,20,104,,-157,176,-150,,,-8,,,,,
,5000,-2,74,,122,-112,-465,,8,-1,20,,105,197,544,,,6,,,,,
,18000,6,412,,239,95,237,,273,24,76,,218,20,31,,,3,,,,,
,-2000,,408,,-120,-157,274,,157,-377,-79,,-31,-132,-298,,,-8,,,,,
,-4000,1,264,,214,-9,96,,195,80,143,,17,145,-77,,,-3,,,,,
,-3000,,-574,,29,20,-98,,80,216,176,,233,156,-146,,,5,,,,,
,-3000,1,-396,,-229,-172,85,,-152,-23,-105,,238,-80,25,,,-5,,,,,
,-4000,3,283,,-179,5,165,,-65,-244,-43,,83,-14,-135,,,-7,,,,,
,-3000,,186,,101,220,392,,-99,1,73,,44,-6,-59,,,-2,,,,,
,-4000,11,-27,,355,303,-26,,35,155,169,,275,38,154,,,11,,,,,
,-1000,-9,-528,,132,143,-164,,-43,207,12,,-216,3,154,,,2,,,,,
,,3,-441,,125,-15,76,,-189,-31,-54,,-272,-22,59,,,1,,,,,
,3000,,95,,-280,-171,28,,-389,-86,-393,,-580,-256,-593,,,3,,,,,
,18000,3,133,,-442,-240,-642,,-313,30,-317,,-360,-276,-499,,,-2,,,,,
,-3000,1,-270,,-358,-278,-698,,-338,-253,-184,,-217,-155,-222,,,,,,,,
,-4000,,-204,,-130,-226,-292,,-282,-235,-223,,-407,-95,-289,,,-10,,,,,
,-1000,4,-126,,73,77,-36,,92,4,42,,14,240,31,,,10,,,,,
,-3000,-2,599,,215,112,129,,405,33,171,,567,227,389,,,-1,,,,,
,-4000,1,161,,-110,150,656,,193,-84,140,,106,97,-46,,,-4,,,,,
,-4000,4,-417,,-88,88,169,,109,-135,-16,,116,-42,27,,,-2,,,,,
,15000,-2,-68,,45,135,-147,,65,160,50,,179,-11,284,,,1,,,,,
,,4,913,,49,193,310,,132,371,252,,247,-38,414,,,-2,,,,,
,-4000,1,118,,123,153,443,,39,109,161,,85,192,349,,,,,,,,
,-3000,,33,,-75,34,-445,,-57,195,-57,,-48,48,-200,,,8,,,,,
,-4000,1,-585,,-66,-130,-67,,-121,-108,-259,,-264,-183,-390,,,-8,,,,,
,-3000,-2,-24,,331,30,329,,146,-35,-24,,-255,,7,,,6,,,,,
,-3000,4,294,,-20,-114,-300,,195,85,61,,-196,48,8,,,1,,,,,
,20000,3,-100,,1,-138,-148,,145,169,8,,-49,-56,370,,,-11,,,,,
